
  ZVRE, 2.05

  stimulus-start        ; stimulus-stop       ; stimulus-unit       ; nof-points; parameter-type; impedance-ohm
  3.00000000000E+05     ; 3.00000000000E+06   ; Hz                  ; 1601      ; RATIO_B2_B1   ; 50        

  conversion            ; time-domain         ; data-format         ; param-unit; smoothing     ; trace-math
  none                  ; none                ; RI                  ; none      ; none          ; none

  sweep-mode-type       ; notlinear-meas-mode 
  FUNDAMENTAL           ; none                


  freq              ;  reRATIO_B2_B ; imRATIO_B2_B  
   3.00000000000E+05;  2.03472E-06  ; 1.59493E-06  
   3.01687500000E+05; -1.48778E-06  ;-3.87076E-06  
   3.03375000000E+05;  4.93703E-07  ; 4.52214E-06  
   3.05062500000E+05; -2.29972E-06  ; 1.1176E-06   
   3.06750000000E+05; -1.26683E-06  ; 4.52071E-07  
   3.08437500000E+05;  1.86193E-06  ; 3.88207E-06  
   3.10125000000E+05; -2.20114E-06  ; 2.30656E-06  
   3.11812500000E+05;  3.22341E-07  ;-8.38774E-07  
   3.13500000000E+05; -2.95716E-06  ; 1.51587E-06  
   3.15187500000E+05; -3.47393E-07  ;-2.16248E-06  
   3.16875000000E+05; -1.70713E-06  ;-6.65009E-08  
   3.18562500000E+05; -9.74067E-07  ; 5.12303E-07  
   3.20250000000E+05; -2.45406E-06  ;-1.17273E-07  
   3.21937500000E+05; -2.03681E-06  ;-1.29639E-06  
   3.23625000000E+05;  1.26698E-06  ;-2.94901E-08  
   3.25312500000E+05;  4.20434E-07  ; 1.46331E-06  
   3.27000000000E+05; -4.69611E-06  ; 2.67789E-07  
   3.28687500000E+05; -1.67444E-08  ; 3.22493E-06  
   3.30375000000E+05;  7.65474E-07  ; 1.93905E-06  
   3.32062500000E+05; -1.02393E-06  ; 7.99059E-07  
   3.33750000000E+05;  1.09543E-06  ; 3.63121E-06  
   3.35437500000E+05;  1.15361E-06  ; 1.29186E-06  
   3.37125000000E+05; -9.34368E-07  ; 2.89657E-06  
   3.38812500000E+05; -2.32131E-06  ; 4.30637E-07  
   3.40500000000E+05;  2.22267E-06  ;-2.85312E-06  
   3.42187500000E+05;  2.58202E-06  ; 5.67264E-07  
   3.43875000000E+05;  3.79105E-06  ;-2.35882E-07  
   3.45562500000E+05; -4.14523E-07  ;-9.81775E-07  
   3.47250000000E+05; -1.622E-06    ;-9.52045E-07  
   3.48937500000E+05; -1.13237E-06  ;-1.87319E-06  
   3.50625000000E+05; -4.4137E-06   ;-2.11197E-06  
   3.52312500000E+05;  7.24648E-07  ; 2.81364E-06  
   3.54000000000E+05;  1.70426E-07  ; 1.16756E-06  
   3.55687500000E+05;  2.41898E-06  ;-1.4265E-06   
   3.57375000000E+05; -2.23284E-06  ; 3.43437E-07  
   3.59062500000E+05;  1.45506E-06  ; 1.24742E-06  
   3.60750000000E+05;  1.13801E-06  ; 3.50292E-06  
   3.62437500000E+05;  1.08265E-06  ;-1.80265E-06  
   3.64125000000E+05;  2.22857E-06  ;-1.04795E-06  
   3.65812500000E+05; -3.27647E-07  ; 4.25381E-06  
   3.67500000000E+05; -5.83415E-07  ;-9.05257E-07  
   3.69187500000E+05;  1.94722E-06  ; 7.45114E-09  
   3.70875000000E+05; -4.24026E-09  ; 7.63241E-09  
   3.72562500000E+05;  1.21735E-07  ; 2.34833E-06  
   3.74250000000E+05;  6.84042E-07  ; 6.34938E-07  
   3.75937500000E+05;  1.47017E-06  ;-2.66793E-06  
   3.77625000000E+05; -5.83617E-07  ;-1.7537E-06   
   3.79312500000E+05;  1.53227E-06  ;-3.57932E-08  
   3.81000000000E+05; -7.89866E-07  ; 6.24489E-07  
   3.82687500000E+05;  2.35686E-06  ; 5.31024E-07  
   3.84375000000E+05; -1.21366E-06  ; 4.15445E-07  
   3.86062500000E+05; -1.33494E-06  ; 3.18425E-06  
   3.87750000000E+05; -1.39139E-06  ; 1.08603E-06  
   3.89437500000E+05;  6.8623E-08   ; 4.06403E-06  
   3.91125000000E+05; -2.66218E-07  ; 3.31029E-06  
   3.92812500000E+05; -3.66804E-06  ;-1.40227E-06  
   3.94500000000E+05;  1.09364E-06  ; 1.00506E-06  
   3.96187500000E+05;  3.77574E-07  ;-5.03875E-07  
   3.97875000000E+05; -3.63868E-07  ;-6.69955E-07  
   3.99562500000E+05; -6.88177E-07  ; 3.60348E-06  
   4.01250000000E+05; -1.609E-06    ;-1.94601E-06  
   4.02937500000E+05; -2.85943E-07  ; 5.94296E-06  
   4.04625000000E+05;  3.55971E-06  ;-6.71531E-07  
   4.06312500000E+05; -9.47686E-07  ; 2.6378E-06   
   4.08000000000E+05; -5.44363E-07  ; 3.50396E-07  
   4.09687500000E+05;  1.10399E-06  ; 1.47677E-06  
   4.11375000000E+05;  9.95617E-07  ; 1.19211E-06  
   4.13062500000E+05;  1.85892E-06  ; 3.23068E-06  
   4.14750000000E+05; -7.55794E-07  ; 9.39954E-07  
   4.16437500000E+05;  5.51135E-07  ; 2.60745E-06  
   4.18125000000E+05;  2.74901E-06  ;-1.72674E-06  
   4.19812500000E+05;  2.83177E-06  ;-1.40701E-06  
   4.21500000000E+05; -1.23677E-06  ; 5.7697E-07   
   4.23187500000E+05; -1.04153E-06  ; 9.93217E-07  
   4.24875000000E+05;  2.81615E-06  ; 1.41483E-06  
   4.26562500000E+05; -5.23646E-06  ;-6.80835E-07  
   4.28250000000E+05;  7.392E-07    ; 1.60568E-06  
   4.29937500000E+05; -1.33642E-06  ; 1.12124E-06  
   4.31625000000E+05; -3.72396E-07  ; 6.60847E-07  
   4.33312500000E+05;  1.70495E-06  ; 3.19349E-06  
   4.35000000000E+05; -8.12881E-08  ; 9.84499E-07  
   4.36687500000E+05;  3.56756E-06  ; 1.32548E-06  
   4.38375000000E+05; -2.11044E-06  ; 2.11812E-06  
   4.40062500000E+05;  2.52414E-07  ;-1.76844E-06  
   4.41750000000E+05;  2.95046E-07  ; 2.07608E-06  
   4.43437500000E+05;  1.26431E-06  ;-2.48452E-07  
   4.45125000000E+05; -4.12681E-06  ; 2.1559E-06   
   4.46812500000E+05; -1.99477E-06  ; 9.90236E-07  
   4.48500000000E+05; -2.34924E-06  ; 9.08268E-07  
   4.50187500000E+05; -6.28328E-07  ; 2.87953E-06  
   4.51875000000E+05;  2.47379E-06  ;-1.9164E-06   
   4.53562500000E+05; -3.91347E-06  ;-1.72565E-06  
   4.55250000000E+05; -1.2008E-06   ; 7.90374E-07  
   4.56937500000E+05;  1.55579E-06  ; 3.04279E-07  
   4.58625000000E+05;  6.79758E-07  ;-3.98105E-06  
   4.60312500000E+05;  1.22657E-06  ; 1.43608E-06  
   4.62000000000E+05; -1.11203E-06  ;-6.90697E-07  
   4.63687500000E+05; -1.81977E-07  ;-1.4848E-06   
   4.65375000000E+05; -8.48361E-07  ; 2.39874E-06  
   4.67062500000E+05;  1.69623E-06  ; 2.40544E-06  
   4.68750000000E+05; -1.49935E-06  ; 1.03131E-07  
   4.70437500000E+05;  2.85954E-06  ; 2.8199E-06   
   4.72125000000E+05; -8.86723E-07  ;-8.9628E-07   
   4.73812500000E+05;  3.62945E-06  ;-1.92933E-06  
   4.75500000000E+05;  4.64612E-06  ; 2.22339E-06  
   4.77187500000E+05; -4.16521E-07  ;-9.95251E-07  
   4.78875000000E+05; -7.47992E-08  ; 3.72146E-06  
   4.80562500000E+05; -6.73158E-07  ; 2.57956E-06  
   4.82250000000E+05; -3.26087E-07  ; 1.60458E-06  
   4.83937500000E+05;  5.56916E-07  ; 1.97412E-06  
   4.85625000000E+05;  2.62654E-06  ; 1.12753E-06  
   4.87312500000E+05; -1.30869E-06  ; 2.49163E-06  
   4.89000000000E+05;  2.38129E-07  ; 2.09967E-06  
   4.90687500000E+05;  2.33558E-07  ; 2.74159E-06  
   4.92375000000E+05; -3.09661E-07  ; 2.74949E-06  
   4.94062500000E+05;  1.34099E-06  ; 4.40884E-07  
   4.95750000000E+05; -2.194E-06    ; 5.69897E-07  
   4.97437500000E+05; -1.75261E-06  ;-3.06755E-07  
   4.99125000000E+05;  8.28858E-08  ;-1.12929E-07  
   5.00812500000E+05; -2.23582E-06  ; 4.28878E-07  
   5.02500000000E+05; -6.95461E-07  ; 1.93749E-06  
   5.04187500000E+05;  7.93293E-07  ; 3.11858E-06  
   5.05875000000E+05;  1.23236E-06  ;-1.84939E-06  
   5.07562500000E+05; -8.60576E-07  ; 6.78609E-07  
   5.09250000000E+05; -4.54333E-07  ;-5.11577E-07  
   5.10937500000E+05; -1.23011E-06  ; 3.68469E-06  
   5.12625000000E+05;  7.26411E-07  ; 1.76736E-06  
   5.14312500000E+05;  1.70158E-06  ; 1.38277E-06  
   5.16000000000E+05;  1.21316E-06  ; 3.57546E-06  
   5.17687500000E+05;  8.28491E-07  ; 1.43791E-06  
   5.19375000000E+05; -1.76644E-07  ; 1.11455E-06  
   5.21062500000E+05; -6.68999E-07  ;-2.03838E-06  
   5.22750000000E+05; -2.26743E-06  ; 7.84003E-07  
   5.24437500000E+05; -8.7725E-07   ; 8.7506E-08   
   5.26125000000E+05; -1.44881E-06  ;-3.93262E-07  
   5.27812500000E+05; -1.64913E-06  ;-2.6632E-06   
   5.29500000000E+05; -8.39135E-07  ; 1.3184E-06   
   5.31187500000E+05;  8.28819E-09  ;-2.0289E-06   
   5.32875000000E+05; -3.30944E-07  ; 3.06501E-07  
   5.34562500000E+05; -2.43729E-06  ;-6.3089E-07   
   5.36250000000E+05; -2.22605E-06  ; 9.51372E-08  
   5.37937500000E+05;  9.77505E-07  ; 2.53329E-06  
   5.39625000000E+05;  5.42956E-07  ;-1.77185E-06  
   5.41312500000E+05; -1.49485E-06  ; 2.86465E-06  
   5.43000000000E+05; -1.02032E-06  ; 1.73858E-06  
   5.44687500000E+05; -4.74776E-09  ; 8.85221E-07  
   5.46375000000E+05; -5.71143E-07  ; 4.28839E-06  
   5.48062500000E+05;  8.6577E-08   ;-8.13203E-07  
   5.49750000000E+05;  6.78894E-08  ; 3.64485E-06  
   5.51437500000E+05;  7.71687E-07  ; 2.31049E-06  
   5.53125000000E+05;  2.93899E-07  ; 2.23786E-06  
   5.54812500000E+05;  1.19896E-06  ; 4.02914E-06  
   5.56500000000E+05; -2.17098E-06  ; 1.44876E-06  
   5.58187500000E+05; -3.13976E-06  ; 1.54459E-06  
   5.59875000000E+05;  1.26942E-06  ; 1.15891E-06  
   5.61562500000E+05; -6.41296E-07  ;-9.88209E-07  
   5.63250000000E+05;  3.88794E-06  ;-1.67673E-06  
   5.64937500000E+05;  6.47906E-07  ; 4.02446E-06  
   5.66625000000E+05;  7.25381E-07  ; 4.52189E-07  
   5.68312500000E+05;  1.94377E-06  ; 3.80029E-06  
   5.70000000000E+05;  9.64446E-07  ; 1.97422E-06  
   5.71687500000E+05;  6.98553E-07  ; 1.8324E-06   
   5.73375000000E+05; -7.7289E-07   ;-4.15103E-07  
   5.75062500000E+05; -3.93087E-07  ; 1.87645E-06  
   5.76750000000E+05; -1.70837E-06  ;-2.0661E-07   
   5.78437500000E+05; -6.3929E-07   ; 1.06854E-06  
   5.80125000000E+05;  1.17963E-06  ; 2.53175E-07  
   5.81812500000E+05; -2.50963E-06  ;-9.42183E-08  
   5.83500000000E+05;  7.18749E-08  ; 1.74616E-06  
   5.85187500000E+05; -3.00248E-06  ; 8.22388E-07  
   5.86875000000E+05; -1.98564E-06  ;-1.49311E-06  
   5.88562500000E+05; -3.60068E-06  ; 4.17007E-07  
   5.90250000000E+05;  2.27174E-06  ; 1.82219E-06  
   5.91937500000E+05; -1.95335E-06  ;-6.9097E-07   
   5.93625000000E+05;  3.65338E-07  ; 1.48643E-06  
   5.95312500000E+05;  3.61153E-07  ; 2.54004E-06  
   5.97000000000E+05; -1.90951E-06  ;-2.02239E-06  
   5.98687500000E+05; -1.51549E-06  ;-2.50255E-07  
   6.00375000000E+05;  9.3187E-07   ; 9.89889E-07  
   6.02062500000E+05; -2.1687E-06   ;-9.78553E-07  
   6.03750000000E+05; -6.69709E-07  ; 1.24282E-06  
   6.05437500000E+05; -1.70732E-06  ; 1.91067E-06  
   6.07125000000E+05;  9.91964E-07  ; 2.30501E-06  
   6.08812500000E+05;  5.59621E-08  ;-1.03532E-06  
   6.10500000000E+05; -1.42289E-06  ; 3.08179E-06  
   6.12187500000E+05;  1.37263E-06  ;-5.18063E-07  
   6.13875000000E+05; -7.68372E-07  ; 5.97191E-07  
   6.15562500000E+05; -4.30423E-07  ; 3.43765E-06  
   6.17250000000E+05; -2.30507E-06  ; 1.5409E-06   
   6.18937500000E+05; -9.0005E-07   ;-2.33931E-06  
   6.20625000000E+05; -3.66013E-06  ; 3.17494E-06  
   6.22312500000E+05; -1.85168E-06  ; 2.78702E-06  
   6.24000000000E+05;  6.0836E-07   ;-1.2258E-06   
   6.25687500000E+05;  1.02682E-07  ; 2.38361E-06  
   6.27375000000E+05; -1.06717E-06  ; 1.218E-06    
   6.29062500000E+05;  4.70131E-07  ; 2.93062E-06  
   6.30750000000E+05; -2.40225E-06  ;-1.61659E-06  
   6.32437500000E+05; -1.35304E-06  ;-1.12056E-06  
   6.34125000000E+05; -1.61207E-06  ; 1.63056E-07  
   6.35812500000E+05; -2.26902E-06  ;-1.98578E-06  
   6.37500000000E+05; -1.00595E-06  ; 1.62466E-06  
   6.39187500000E+05;  8.81439E-07  ; 1.02652E-06  
   6.40875000000E+05;  1.20606E-06  ;-1.31359E-06  
   6.42562500000E+05;  1.26103E-06  ; 4.31937E-06  
   6.44250000000E+05; -6.24781E-07  ; 3.08976E-07  
   6.45937500000E+05;  6.16348E-07  ; 3.83481E-06  
   6.47625000000E+05;  1.20929E-06  ; 1.38026E-07  
   6.49312500000E+05; -2.16938E-06  ;-1.23487E-07  
   6.51000000000E+05;  6.33498E-08  ; 1.17284E-06  
   6.52687500000E+05; -1.60192E-06  ; 1.38173E-06  
   6.54375000000E+05; -5.86412E-07  ; 2.40216E-06  
   6.56062500000E+05; -5.53197E-10  ; 2.97708E-07  
   6.57750000000E+05;  1.2438E-06   ; 5.18831E-07  
   6.59437500000E+05;  1.6585E-06   ;-1.3363E-06   
   6.61125000000E+05;  5.50135E-07  ; 6.1796E-07   
   6.62812500000E+05; -1.13869E-06  ; 9.1976E-07   
   6.64500000000E+05; -2.48929E-06  ; 8.97569E-07  
   6.66187500000E+05;  7.52802E-07  ; 3.01791E-06  
   6.67875000000E+05; -8.73259E-07  ;-2.58866E-06  
   6.69562500000E+05; -1.00933E-07  ; 3.38803E-07  
   6.71250000000E+05; -1.69295E-06  ;-1.26029E-06  
   6.72937500000E+05; -1.04987E-06  ; 1.96217E-06  
   6.74625000000E+05; -1.46965E-06  ; 2.05507E-06  
   6.76312500000E+05; -2.32018E-06  ; 2.7808E-06   
   6.78000000000E+05; -4.02297E-06  ; 1.53642E-06  
   6.79687500000E+05;  2.25597E-06  ; 1.04647E-06  
   6.81375000000E+05; -3.23374E-07  ;-5.56013E-07  
   6.83062500000E+05;  2.32263E-06  ; 6.36887E-07  
   6.84750000000E+05; -7.17571E-07  ; 2.35908E-07  
   6.86437500000E+05; -9.87184E-07  ;-1.00084E-06  
   6.88125000000E+05; -9.57319E-07  ; 1.79355E-07  
   6.89812500000E+05; -1.63771E-06  ; 2.71926E-06  
   6.91500000000E+05; -2.31702E-06  ;-7.26869E-08  
   6.93187500000E+05;  1.11765E-06  ; 2.7653E-06   
   6.94875000000E+05; -2.30102E-06  ; 2.24731E-06  
   6.96562500000E+05;  1.2641E-06   ;-3.34492E-07  
   6.98250000000E+05; -8.11496E-07  ; 1.86568E-06  
   6.99937500000E+05;  2.65207E-06  ; 3.47856E-06  
   7.01625000000E+05; -1.71793E-07  ; 7.70558E-07  
   7.03312500000E+05;  6.60073E-07  ; 1.10943E-06  
   7.05000000000E+05; -4.94674E-07  ; 1.19146E-06  
   7.06687500000E+05;  1.69727E-06  ;-1.44769E-07  
   7.08375000000E+05;  2.54749E-06  ; 1.17663E-06  
   7.10062500000E+05; -3.74824E-07  ; 2.87795E-06  
   7.11750000000E+05; -5.78188E-07  ; 7.24812E-07  
   7.13437500000E+05;  1.30253E-06  ; 4.32308E-06  
   7.15125000000E+05; -7.66459E-07  ; 3.90747E-06  
   7.16812500000E+05;  1.31965E-06  ;-1.22259E-07  
   7.18500000000E+05; -1.95406E-06  ; 2.07445E-07  
   7.20187500000E+05; -3.03101E-06  ;-1.74451E-06  
   7.21875000000E+05;  1.12456E-06  ; 1.98992E-06  
   7.23562500000E+05; -2.91119E-06  ;-9.29346E-08  
   7.25250000000E+05; -2.98326E-06  ; 2.98977E-06  
   7.26937500000E+05;  1.85728E-06  ; 2.31201E-08  
   7.28625000000E+05;  4.90011E-07  ; 6.33011E-07  
   7.30312500000E+05;  4.49726E-07  ; 1.03845E-06  
   7.32000000000E+05;  3.07866E-07  ; 1.0903E-06   
   7.33687500000E+05; -1.14473E-06  ; 1.69278E-06  
   7.35375000000E+05;  1.47453E-07  ; 1.38916E-06  
   7.37062500000E+05;  3.08488E-07  ;-1.28902E-06  
   7.38750000000E+05;  1.22753E-06  ; 8.37627E-07  
   7.40437500000E+05; -1.01597E-06  ; 1.52639E-06  
   7.42125000000E+05; -9.77163E-07  ; 1.35691E-06  
   7.43812500000E+05; -2.42546E-06  ;-1.10811E-06  
   7.45500000000E+05; -1.47555E-06  ;-5.23125E-07  
   7.47187500000E+05; -1.70997E-07  ; 1.53988E-06  
   7.48875000000E+05;  2.19165E-06  ; 1.59587E-06  
   7.50562500000E+05; -1.26402E-06  ; 7.87722E-07  
   7.52250000000E+05; -5.11684E-07  ; 1.87286E-06  
   7.53937500000E+05; -3.65243E-07  ; 1.44265E-06  
   7.55625000000E+05; -8.28649E-07  ; 1.55262E-06  
   7.57312500000E+05;  2.88128E-07  ; 8.68383E-07  
   7.59000000000E+05; -1.46649E-07  ;-1.44486E-06  
   7.60687500000E+05;  2.11847E-07  ; 1.82227E-06  
   7.62375000000E+05;  1.96701E-06  ; 9.83715E-07  
   7.64062500000E+05;  1.57721E-06  ; 2.56052E-06  
   7.65750000000E+05; -1.73992E-06  ; 1.95058E-06  
   7.67437500000E+05;  1.69937E-06  ; 1.54278E-06  
   7.69125000000E+05;  1.24305E-07  ; 2.1082E-07   
   7.70812500000E+05; -4.37403E-07  ;-8.99924E-07  
   7.72500000000E+05;  1.29311E-06  ; 1.55802E-06  
   7.74187500000E+05; -2.16864E-06  ; 1.77847E-06  
   7.75875000000E+05;  4.23166E-07  ;-1.4081E-06   
   7.77562500000E+05; -8.225E-07    ;-7.96606E-07  
   7.79250000000E+05; -4.92854E-07  ; 2.96518E-06  
   7.80937500000E+05; -2.78377E-06  ; 1.92018E-06  
   7.82625000000E+05; -1.8746E-07   ;-1.32437E-06  
   7.84312500000E+05;  4.01117E-07  ;-9.75631E-07  
   7.86000000000E+05; -8.36702E-07  ; 6.12465E-07  
   7.87687500000E+05; -2.83904E-06  ; 8.25373E-07  
   7.89375000000E+05;  1.78487E-06  ; 1.53634E-06  
   7.91062500000E+05; -2.91683E-06  ; 3.27736E-06  
   7.92750000000E+05;  5.7924E-07   ; 1.06461E-06  
   7.94437500000E+05; -9.69897E-08  ; 1.16697E-06  
   7.96125000000E+05;  2.08384E-06  ; 8.08913E-07  
   7.97812500000E+05; -1.04548E-06  ; 1.95477E-06  
   7.99500000000E+05; -2.75388E-06  ; 3.2624E-06   
   8.01187500000E+05;  5.46144E-07  ; 9.67631E-07  
   8.02875000000E+05;  2.16032E-06  ; 4.30001E-07  
   8.04562500000E+05; -2.67669E-07  ;-2.48189E-07  
   8.06250000000E+05; -1.23563E-06  ; 1.79699E-06  
   8.07937500000E+05;  1.80374E-06  ; 2.46342E-06  
   8.09625000000E+05; -1.18401E-06  ; 9.03014E-07  
   8.11312500000E+05;  1.4482E-06   ; 2.91739E-06  
   8.13000000000E+05;  1.14864E-07  ; 1.36227E-06  
   8.14687500000E+05; -1.8231E-06   ; 1.41783E-06  
   8.16375000000E+05; -5.59957E-07  ;-3.71848E-07  
   8.18062500000E+05; -8.87122E-07  ; 1.14699E-07  
   8.19750000000E+05; -1.46493E-06  ; 2.71453E-06  
   8.21437500000E+05; -2.46594E-06  ;-5.72496E-07  
   8.23125000000E+05;  7.00734E-07  ; 1.42972E-06  
   8.24812500000E+05; -1.10222E-06  ;-9.69991E-08  
   8.26500000000E+05;  6.81571E-07  ; 9.622E-07    
   8.28187500000E+05; -1.28228E-07  ; 2.15407E-06  
   8.29875000000E+05; -3.08369E-07  ;-8.62017E-07  
   8.31562500000E+05; -3.85944E-06  ;-1.26848E-06  
   8.33250000000E+05;  4.9859E-07   ; 9.71509E-07  
   8.34937500000E+05; -2.05198E-06  ; 1.58567E-06  
   8.36625000000E+05; -1.4705E-07   ; 2.54116E-06  
   8.38312500000E+05;  3.33948E-07  ; 2.94014E-06  
   8.40000000000E+05;  4.35052E-07  ; 1.99671E-06  
   8.41687500000E+05;  2.33121E-07  ; 1.4826E-06   
   8.43375000000E+05; -7.12965E-07  ; 1.51785E-06  
   8.45062500000E+05; -1.0749E-07   ; 2.16955E-06  
   8.46750000000E+05;  3.61379E-07  ; 2.99453E-07  
   8.48437500000E+05;  1.43491E-06  ;-1.06075E-06  
   8.50125000000E+05;  1.24644E-06  ; 1.32549E-06  
   8.51812500000E+05;  6.38189E-07  ; 1.03101E-06  
   8.53500000000E+05;  9.34201E-07  ; 1.92984E-06  
   8.55187500000E+05; -2.23707E-06  ; 2.35286E-06  
   8.56875000000E+05;  3.14985E-07  ; 1.18798E-06  
   8.58562500000E+05; -2.5651E-06   ; 8.27549E-07  
   8.60250000000E+05;  6.652E-07    ; 3.34388E-06  
   8.61937500000E+05;  6.07481E-07  ; 4.58859E-07  
   8.63625000000E+05; -1.87028E-07  ; 1.63833E-06  
   8.65312500000E+05;  5.52491E-07  ; 1.27642E-06  
   8.67000000000E+05;  1.84657E-06  ; 2.48268E-06  
   8.68687500000E+05; -1.21238E-06  ; 1.58751E-06  
   8.70375000000E+05;  6.83558E-07  ;-9.31428E-07  
   8.72062500000E+05;  5.35831E-07  ; 2.03297E-06  
   8.73750000000E+05;  1.8531E-06   ; 4.73808E-09  
   8.75437500000E+05; -8.78239E-07  ; 1.09709E-06  
   8.77125000000E+05; -6.43732E-07  ; 3.16263E-06  
   8.78812500000E+05; -5.19881E-07  ;-3.29668E-07  
   8.80500000000E+05; -1.56606E-06  ; 2.70307E-06  
   8.82187500000E+05;  2.22725E-06  ; 1.10522E-06  
   8.83875000000E+05; -1.78493E-06  ; 7.13177E-07  
   8.85562500000E+05;  1.74719E-06  ; 3.41994E-06  
   8.87250000000E+05;  3.44277E-07  ; 1.31123E-06  
   8.88937500000E+05; -7.73654E-07  ; 1.50219E-06  
   8.90625000000E+05; -9.62337E-07  ; 6.68776E-07  
   8.92312500000E+05; -1.83586E-06  ; 2.38449E-06  
   8.94000000000E+05;  1.84022E-06  ;-1.68732E-06  
   8.95687500000E+05; -5.77222E-07  ; 2.0105E-06   
   8.97375000000E+05;  4.19786E-07  ; 9.08543E-07  
   8.99062500000E+05; -1.41089E-06  ; 7.72693E-07  
   9.00750000000E+05; -1.22154E-06  ; 1.07637E-07  
   9.02437500000E+05; -2.8199E-06   ; 4.31373E-07  
   9.04125000000E+05; -1.13713E-06  ; 8.04391E-08  
   9.05812500000E+05;  4.26516E-08  ; 3.58106E-07  
   9.07500000000E+05;  2.12462E-06  ; 3.47802E-06  
   9.09187500000E+05;  1.94511E-07  ; 1.14222E-06  
   9.10875000000E+05; -3.15075E-07  ;-1.92126E-07  
   9.12562500000E+05;  4.74525E-08  ; 1.50094E-06  
   9.14250000000E+05; -5.70013E-07  ; 2.38537E-07  
   9.15937500000E+05; -2.0942E-07   ; 1.79021E-06  
   9.17625000000E+05;  1.14351E-06  ; 4.57096E-08  
   9.19312500000E+05; -1.68795E-06  ; 6.25634E-07  
   9.21000000000E+05; -1.95733E-06  ; 1.69072E-06  
   9.22687500000E+05;  5.58129E-07  ; 9.13607E-07  
   9.24375000000E+05; -4.45754E-07  ; 4.46287E-07  
   9.26062500000E+05; -1.31144E-06  ; 1.03024E-07  
   9.27750000000E+05; -1.25611E-06  ; 2.55741E-06  
   9.29437500000E+05; -3.28707E-06  ; 2.12876E-06  
   9.31125000000E+05;  4.10825E-07  ; 2.27656E-06  
   9.32812500000E+05;  1.00938E-06  ; 2.10888E-06  
   9.34500000000E+05; -1.5521E-06   ; 9.63866E-07  
   9.36187500000E+05;  1.62068E-07  ;-9.28852E-07  
   9.37875000000E+05; -4.34682E-07  ; 2.83505E-06  
   9.39562500000E+05;  6.61104E-07  ;-1.24414E-07  
   9.41250000000E+05;  4.35047E-07  ; 2.61452E-06  
   9.42937500000E+05;  1.45021E-06  ; 1.20083E-06  
   9.44625000000E+05; -1.71968E-06  ; 4.78972E-07  
   9.46312500000E+05; -8.78602E-07  ; 2.58997E-06  
   9.48000000000E+05;  2.14227E-06  ; 3.71106E-06  
   9.49687500000E+05;  3.09601E-07  ; 2.70215E-06  
   9.51375000000E+05;  5.29177E-07  ; 1.32715E-06  
   9.53062500000E+05; -6.16774E-07  ; 3.56607E-06  
   9.54750000000E+05; -2.72599E-07  ; 2.93227E-06  
   9.56437500000E+05;  3.68505E-07  ; 2.38709E-06  
   9.58125000000E+05;  1.23971E-06  ; 1.80605E-06  
   9.59812500000E+05; -1.42586E-06  ; 1.32855E-07  
   9.61500000000E+05; -2.70534E-06  ; 2.75419E-06  
   9.63187500000E+05; -1.86276E-06  ; 3.07215E-06  
   9.64875000000E+05;  8.24991E-08  ; 2.26916E-08  
   9.66562500000E+05;  1.19477E-07  ; 1.08979E-06  
   9.68250000000E+05; -1.01847E-06  ; 1.86063E-06  
   9.69937500000E+05; -2.79864E-06  ; 1.8438E-06   
   9.71625000000E+05; -1.20486E-06  ; 6.52262E-07  
   9.73312500000E+05; -1.28242E-06  ;-2.77795E-07  
   9.75000000000E+05;  1.24992E-07  ; 5.50873E-07  
   9.76687500000E+05; -4.92353E-07  ;-6.52441E-07  
   9.78375000000E+05; -8.19696E-08  ; 2.12479E-06  
   9.80062500000E+05;  1.56879E-06  ; 1.91272E-06  
   9.81750000000E+05;  6.30139E-07  ; 2.37337E-06  
   9.83437500000E+05; -1.7365E-06   ; 2.59873E-06  
   9.85125000000E+05;  6.51928E-08  ; 5.12551E-07  
   9.86812500000E+05; -2.16503E-06  ; 1.78552E-06  
   9.88500000000E+05;  1.81739E-07  ;-4.48513E-08  
   9.90187500000E+05; -1.21383E-06  ; 1.4109E-06   
   9.91875000000E+05; -1.54703E-06  ; 3.48985E-06  
   9.93562500000E+05; -2.37918E-06  ; 2.57875E-06  
   9.95250000000E+05; -1.0092E-06   ; 2.03445E-06  
   9.96937500000E+05; -2.28383E-06  ; 3.88462E-07  
   9.98625000000E+05; -2.15004E-06  ; 1.42091E-06  
   1.00031250000E+06;  6.14525E-07  ; 6.5455E-07   
   1.00200000000E+06; -1.39502E-06  ; 2.58457E-06  
   1.00368750000E+06; -1.17297E-06  ;-4.85178E-07  
   1.00537500000E+06;  6.96489E-07  ; 2.06315E-07  
   1.00706250000E+06;  7.38842E-07  ; 1.22454E-06  
   1.00875000000E+06;  4.5177E-07   ; 3.55474E-08  
   1.01043750000E+06;  1.05679E-07  ; 1.49151E-06  
   1.01212500000E+06;  5.89294E-07  ; 3.48483E-06  
   1.01381250000E+06; -1.17819E-06  ; 1.78919E-06  
   1.01550000000E+06;  9.81028E-07  ; 1.41479E-06  
   1.01718750000E+06; -8.62839E-07  ; 2.51849E-06  
   1.01887500000E+06;  2.01717E-06  ; 4.12187E-06  
   1.02056250000E+06; -5.79143E-07  ; 4.99206E-06  
   1.02225000000E+06; -1.68182E-06  ; 1.37581E-07  
   1.02393750000E+06; -1.43969E-06  ; 1.70729E-07  
   1.02562500000E+06; -1.90499E-06  ;-5.01543E-08  
   1.02731250000E+06; -1.90649E-06  ; 2.91285E-08  
   1.02900000000E+06; -8.91869E-07  ; 1.45409E-06  
   1.03068750000E+06; -1.01773E-06  ; 2.32784E-06  
   1.03237500000E+06;  6.39066E-07  ;-4.78889E-07  
   1.03406250000E+06; -3.23259E-07  ; 1.61427E-06  
   1.03575000000E+06; -4.63651E-07  ; 1.32149E-06  
   1.03743750000E+06;  5.20276E-08  ; 1.87764E-06  
   1.03912500000E+06;  1.41225E-06  ; 1.60684E-07  
   1.04081250000E+06; -3.65474E-07  ; 2.44685E-06  
   1.04250000000E+06; -1.05926E-07  ;-2.50043E-07  
   1.04418750000E+06; -1.05378E-06  ; 2.1667E-06   
   1.04587500000E+06;  1.71965E-06  ; 2.85545E-06  
   1.04756250000E+06; -7.23016E-07  ; 1.56881E-06  
   1.04925000000E+06; -1.60106E-06  ;-7.68616E-07  
   1.05093750000E+06;  3.58207E-07  ; 2.92541E-06  
   1.05262500000E+06; -8.33799E-08  ; 3.5339E-06   
   1.05431250000E+06; -1.33756E-06  ; 2.40636E-06  
   1.05600000000E+06;  1.14127E-06  ; 2.4646E-06   
   1.05768750000E+06; -1.34167E-06  ; 4.23012E-07  
   1.05937500000E+06; -7.87944E-07  ; 8.73044E-07  
   1.06106250000E+06;  9.23185E-07  ; 2.64014E-07  
   1.06275000000E+06;  4.193E-07    ; 2.98117E-07  
   1.06443750000E+06; -6.19302E-07  ; 5.059E-07    
   1.06612500000E+06;  1.85061E-07  ; 1.56698E-06  
   1.06781250000E+06;  1.11146E-06  ; 2.12231E-06  
   1.06950000000E+06; -2.30236E-06  ; 8.10937E-07  
   1.07118750000E+06; -3.77569E-06  ; 1.98632E-06  
   1.07287500000E+06; -2.38623E-06  ; 1.39564E-06  
   1.07456250000E+06; -1.20376E-07  ; 3.39482E-06  
   1.07625000000E+06;  2.65459E-09  ; 1.93398E-06  
   1.07793750000E+06; -1.04754E-06  ; 2.17111E-06  
   1.07962500000E+06;  2.74099E-07  ; 2.95705E-06  
   1.08131250000E+06; -5.53447E-07  ; 1.05293E-06  
   1.08300000000E+06;  9.29339E-07  ;-1.21169E-07  
   1.08468750000E+06;  7.47151E-07  ;-1.68389E-07  
   1.08637500000E+06;  2.36026E-06  ; 1.60838E-06  
   1.08806250000E+06; -5.20109E-07  ; 1.92525E-06  
   1.08975000000E+06; -1.13998E-06  ; 1.74126E-06  
   1.09143750000E+06;  4.6716E-07   ;-9.34631E-07  
   1.09312500000E+06; -4.13428E-07  ; 2.70398E-07  
   1.09481250000E+06; -1.35683E-06  ; 3.51547E-06  
   1.09650000000E+06; -1.94213E-06  ; 7.59237E-07  
   1.09818750000E+06; -7.134E-07    ; 1.54033E-06  
   1.09987500000E+06; -1.33937E-06  ; 1.06872E-06  
   1.10156250000E+06; -6.695E-07    ; 2.3692E-06   
   1.10325000000E+06; -1.46526E-06  ; 2.33496E-06  
   1.10493750000E+06; -9.15472E-07  ; 1.2443E-06   
   1.10662500000E+06; -2.4653E-06   ; 2.17002E-06  
   1.10831250000E+06;  2.05988E-07  ; 2.44582E-06  
   1.11000000000E+06; -2.03127E-07  ; 1.51152E-09  
   1.11168750000E+06; -1.80712E-07  ; 5.76333E-08  
   1.11337500000E+06; -1.59671E-06  ; 2.88523E-07  
   1.11506250000E+06; -6.09912E-07  ; 8.90539E-07  
   1.11675000000E+06;  4.84315E-07  ; 1.05941E-06  
   1.11843750000E+06; -3.36448E-07  ; 3.92648E-06  
   1.12012500000E+06;  1.60886E-07  ;-3.03519E-07  
   1.12181250000E+06;  2.21529E-07  ; 1.53173E-06  
   1.12350000000E+06; -1.05299E-07  ; 2.2441E-06   
   1.12518750000E+06;  5.78659E-07  ; 2.24095E-06  
   1.12687500000E+06;  5.74172E-07  ; 1.40046E-06  
   1.12856250000E+06;  2.78848E-07  ; 3.42957E-07  
   1.13025000000E+06; -1.12154E-06  ; 3.8861E-07   
   1.13193750000E+06; -1.02872E-06  ; 8.90741E-07  
   1.13362500000E+06;  1.05341E-06  ; 5.51452E-07  
   1.13531250000E+06; -5.50521E-07  ; 2.218E-06    
   1.13700000000E+06;  8.8096E-07   ; 3.6919E-06   
   1.13868750000E+06; -1.75874E-06  ; 1.40026E-06  
   1.14037500000E+06; -5.27163E-07  ; 1.62252E-06  
   1.14206250000E+06; -2.20019E-06  ; 1.86155E-06  
   1.14375000000E+06; -6.59707E-07  ; 3.66572E-06  
   1.14543750000E+06; -1.09015E-06  ; 1.1216E-06   
   1.14712500000E+06; -5.93898E-07  ; 2.42612E-06  
   1.14881250000E+06; -3.37114E-07  ; 2.28708E-06  
   1.15050000000E+06; -5.67035E-07  ; 2.63513E-06  
   1.15218750000E+06;  6.73232E-08  ; 1.24358E-06  
   1.15387500000E+06; -4.1639E-07   ; 3.09164E-06  
   1.15556250000E+06; -1.00588E-06  ; 1.77733E-06  
   1.15725000000E+06;  1.19365E-06  ;-9.80245E-08  
   1.15893750000E+06;  6.33554E-07  ; 2.97356E-06  
   1.16062500000E+06;  3.99407E-07  ; 2.72024E-06  
   1.16231250000E+06; -6.26375E-07  ; 1.72708E-06  
   1.16400000000E+06; -5.78883E-07  ; 1.47378E-06  
   1.16568750000E+06;  9.00753E-07  ; 6.42961E-07  
   1.16737500000E+06; -1.9671E-06   ; 1.21827E-06  
   1.16906250000E+06; -1.42139E-06  ; 1.66648E-06  
   1.17075000000E+06; -2.27034E-06  ; 1.58704E-06  
   1.17243750000E+06; -6.477E-08    ; 1.25355E-06  
   1.17412500000E+06;  6.84684E-07  ; 2.89263E-06  
   1.17581250000E+06; -1.01703E-06  ; 2.09639E-06  
   1.17750000000E+06;  2.23423E-06  ; 1.97117E-06  
   1.17918750000E+06; -5.84815E-07  ; 1.61057E-06  
   1.18087500000E+06;  3.42824E-07  ; 8.10766E-07  
   1.18256250000E+06; -3.56717E-07  ; 1.26512E-06  
   1.18425000000E+06;  1.44614E-06  ; 1.09629E-06  
   1.18593750000E+06; -1.69069E-06  ; 3.71637E-06  
   1.18762500000E+06; -2.04712E-06  ; 1.97831E-06  
   1.18931250000E+06; -1.36175E-06  ; 1.59703E-06  
   1.19100000000E+06; -1.27077E-06  ; 2.44053E-06  
   1.19268750000E+06; -2.88242E-06  ; 3.51613E-07  
   1.19437500000E+06; -8.18708E-07  ;-4.85524E-08  
   1.19606250000E+06;  8.12753E-07  ; 1.75791E-06  
   1.19775000000E+06; -1.31276E-07  ; 1.65322E-06  
   1.19943750000E+06; -1.74458E-06  ; 3.40919E-06  
   1.20112500000E+06;  2.77384E-07  ; 2.51371E-06  
   1.20281250000E+06;  1.25159E-07  ; 1.55531E-06  
   1.20450000000E+06;  5.42636E-08  ; 4.38079E-06  
   1.20618750000E+06;  1.43719E-07  ; 2.27538E-06  
   1.20787500000E+06;  3.80427E-07  ; 2.45608E-08  
   1.20956250000E+06; -5.73674E-07  ; 2.07562E-06  
   1.21125000000E+06; -1.26459E-06  ; 2.72763E-06  
   1.21293750000E+06; -8.36379E-07  ; 1.17436E-06  
   1.21462500000E+06; -5.89155E-07  ; 4.33091E-07  
   1.21631250000E+06;  4.9679E-07   ; 1.82393E-06  
   1.21800000000E+06; -1.49221E-06  ; 3.09757E-06  
   1.21968750000E+06; -1.33299E-06  ; 1.08386E-06  
   1.22137500000E+06; -3.2271E-08   ; 1.58394E-06  
   1.22306250000E+06; -1.2055E-07   ; 1.34204E-06  
   1.22475000000E+06; -3.16603E-07  ; 6.22966E-06  
   1.22643750000E+06; -1.59828E-06  ; 2.17799E-06  
   1.22812500000E+06; -7.63955E-07  ; 3.44258E-07  
   1.22981250000E+06; -5.55386E-07  ; 1.66743E-06  
   1.23150000000E+06;  1.27323E-07  ; 2.29758E-06  
   1.23318750000E+06;  2.51789E-07  ; 3.53884E-06  
   1.23487500000E+06; -2.66343E-06  ; 2.09063E-06  
   1.23656250000E+06;  5.92864E-07  ; 1.33496E-06  
   1.23825000000E+06;  1.86158E-06  ;-5.0422E-07   
   1.23993750000E+06; -1.2368E-06   ; 1.52389E-06  
   1.24162500000E+06; -6.65112E-08  ; 2.33398E-06  
   1.24331250000E+06;  3.52699E-07  ; 1.60504E-06  
   1.24500000000E+06; -8.67116E-07  ; 2.90921E-06  
   1.24668750000E+06; -7.08899E-07  ; 1.34934E-06  
   1.24837500000E+06;  4.49527E-07  ; 3.08694E-06  
   1.25006250000E+06; -8.61558E-07  ; 8.80235E-07  
   1.25175000000E+06; -7.63681E-07  ; 2.4022E-06   
   1.25343750000E+06;  6.09837E-07  ; 1.75927E-06  
   1.25512500000E+06;  4.69454E-07  ; 1.6645E-06   
   1.25681250000E+06; -2.09775E-07  ; 2.52989E-06  
   1.25850000000E+06;  1.37215E-06  ; 4.27E-06     
   1.26018750000E+06; -7.98121E-07  ; 1.87866E-06  
   1.26187500000E+06; -1.60979E-06  ; 2.78048E-06  
   1.26356250000E+06;  1.67499E-06  ; 7.75797E-07  
   1.26525000000E+06; -2.52292E-06  ; 1.51547E-06  
   1.26693750000E+06; -1.56096E-06  ; 3.99147E-06  
   1.26862500000E+06; -3.90457E-07  ; 3.99522E-06  
   1.27031250000E+06; -7.90045E-07  ; 2.29661E-06  
   1.27200000000E+06; -2.13982E-06  ; 2.3446E-06   
   1.27368750000E+06;  8.33026E-07  ; 2.52917E-06  
   1.27537500000E+06; -1.34214E-08  ; 4.63799E-06  
   1.27706250000E+06; -9.4234E-07   ; 2.72233E-06  
   1.27875000000E+06;  2.59036E-07  ; 3.33218E-06  
   1.28043750000E+06; -1.81466E-06  ; 1.93536E-06  
   1.28212500000E+06; -1.52109E-06  ; 2.20314E-06  
   1.28381250000E+06;  4.78836E-07  ; 3.30615E-07  
   1.28550000000E+06; -9.55489E-07  ; 2.1778E-06   
   1.28718750000E+06; -5.61794E-07  ; 4.46263E-07  
   1.28887500000E+06; -2.54601E-06  ; 1.15857E-06  
   1.29056250000E+06; -1.18909E-06  ; 2.35515E-06  
   1.29225000000E+06;  4.11431E-08  ; 2.67532E-06  
   1.29393750000E+06; -7.15712E-07  ; 1.86489E-06  
   1.29562500000E+06;  5.3317E-07   ; 4.10027E-06  
   1.29731250000E+06; -4.08704E-07  ; 3.24882E-06  
   1.29900000000E+06;  4.02718E-07  ; 1.44607E-06  
   1.30068750000E+06; -2.75844E-06  ; 2.57524E-07  
   1.30237500000E+06; -5.11987E-07  ; 2.52641E-06  
   1.30406250000E+06;  5.81558E-07  ; 3.54664E-06  
   1.30575000000E+06; -5.09713E-07  ; 4.23315E-06  
   1.30743750000E+06;  1.16998E-06  ; 6.02606E-07  
   1.30912500000E+06; -2.10442E-06  ; 4.07623E-06  
   1.31081250000E+06; -1.5196E-06   ; 6.30073E-07  
   1.31250000000E+06; -2.02245E-07  ; 5.307E-06    
   1.31418750000E+06; -1.60117E-06  ; 2.88254E-06  
   1.31587500000E+06; -1.54564E-06  ; 1.4964E-06   
   1.31756250000E+06;  5.18044E-07  ; 1.80896E-06  
   1.31925000000E+06;  1.68915E-06  ; 2.42535E-06  
   1.32093750000E+06; -1.81083E-06  ; 2.70041E-06  
   1.32262500000E+06; -5.95408E-07  ; 2.41624E-06  
   1.32431250000E+06; -3.40388E-06  ; 1.21297E-06  
   1.32600000000E+06;  6.22801E-07  ; 1.91457E-06  
   1.32768750000E+06; -2.24897E-06  ; 1.94908E-06  
   1.32937500000E+06; -7.28324E-07  ; 1.43796E-06  
   1.33106250000E+06; -3.48909E-07  ;-1.71704E-07  
   1.33275000000E+06;  1.53245E-07  ; 4.90511E-07  
   1.33443750000E+06; -1.50219E-07  ; 3.97022E-06  
   1.33612500000E+06; -1.37446E-06  ; 2.23772E-06  
   1.33781250000E+06; -8.98257E-08  ; 1.59257E-06  
   1.33950000000E+06; -7.2833E-07   ; 2.22451E-06  
   1.34118750000E+06; -1.49839E-06  ; 4.70255E-07  
   1.34287500000E+06; -1.06973E-07  ; 1.17369E-06  
   1.34456250000E+06;  4.99692E-07  ; 4.0079E-08   
   1.34625000000E+06; -1.15504E-06  ; 5.16763E-07  
   1.34793750000E+06;  1.31524E-06  ; 2.44709E-06  
   1.34962500000E+06;  1.41643E-07  ; 2.85785E-06  
   1.35131250000E+06; -2.08342E-06  ; 1.08318E-06  
   1.35300000000E+06;  1.19624E-07  ; 1.98828E-06  
   1.35468750000E+06; -1.37227E-06  ; 1.4442E-06   
   1.35637500000E+06; -3.09428E-07  ; 3.23634E-06  
   1.35806250000E+06;  1.78319E-06  ; 1.47468E-06  
   1.35975000000E+06; -1.99444E-07  ; 2.91815E-06  
   1.36143750000E+06;  6.79344E-07  ; 1.9736E-06   
   1.36312500000E+06;  8.93428E-07  ; 2.36683E-06  
   1.36481250000E+06;  4.45027E-07  ; 5.02142E-06  
   1.36650000000E+06; -8.85864E-08  ; 3.53241E-06  
   1.36818750000E+06;  5.85891E-08  ; 2.07498E-06  
   1.36987500000E+06;  7.67982E-07  ; 1.35158E-06  
   1.37156250000E+06;  1.41064E-06  ; 2.20706E-06  
   1.37325000000E+06; -1.16419E-07  ; 3.58893E-06  
   1.37493750000E+06; -4.45271E-07  ; 2.03828E-06  
   1.37662500000E+06;  1.20613E-06  ; 3.499E-06    
   1.37831250000E+06;  5.86909E-08  ; 3.27539E-06  
   1.38000000000E+06;  3.88092E-07  ; 2.46708E-06  
   1.38168750000E+06;  4.89277E-07  ; 1.72232E-06  
   1.38337500000E+06;  1.0835E-07   ; 1.44435E-06  
   1.38506250000E+06; -2.83924E-06  ; 3.85746E-06  
   1.38675000000E+06;  1.31012E-07  ; 3.90056E-07  
   1.38843750000E+06; -1.33557E-07  ; 1.43555E-06  
   1.39012500000E+06; -1.43025E-06  ; 1.67964E-06  
   1.39181250000E+06; -8.51744E-07  ; 4.65412E-06  
   1.39350000000E+06;  1.38266E-06  ; 2.39492E-06  
   1.39518750000E+06;  4.49525E-07  ; 5.46972E-07  
   1.39687500000E+06;  9.89558E-07  ; 3.22474E-06  
   1.39856250000E+06; -2.71462E-06  ; 1.72267E-06  
   1.40025000000E+06; -1.29594E-06  ; 8.25817E-07  
   1.40193750000E+06; -6.0031E-07   ; 2.79375E-06  
   1.40362500000E+06; -1.67537E-06  ; 2.09066E-06  
   1.40531250000E+06;  1.25346E-07  ;-7.57171E-07  
   1.40700000000E+06; -2.34591E-06  ; 4.37227E-06  
   1.40868750000E+06; -1.53474E-06  ; 1.58464E-06  
   1.41037500000E+06; -1.86927E-06  ; 4.3363E-07   
   1.41206250000E+06; -1.78029E-06  ; 3.70938E-06  
   1.41375000000E+06; -1.59312E-06  ; 3.50383E-06  
   1.41543750000E+06;  3.9314E-07   ; 9.22556E-07  
   1.41712500000E+06; -2.0603E-06   ; 4.22465E-06  
   1.41881250000E+06;  8.40466E-07  ; 5.72044E-07  
   1.42050000000E+06; -4.05731E-07  ; 2.18972E-06  
   1.42218750000E+06; -4.63023E-07  ; 1.4967E-06   
   1.42387500000E+06; -1.19219E-06  ; 3.68911E-06  
   1.42556250000E+06;  9.54562E-07  ; 1.12619E-06  
   1.42725000000E+06; -3.35346E-07  ; 3.42476E-06  
   1.42893750000E+06; -1.45811E-06  ; 3.048E-06    
   1.43062500000E+06; -4.23494E-07  ; 1.16991E-06  
   1.43231250000E+06;  6.13425E-07  ; 2.21621E-06  
   1.43400000000E+06; -1.53591E-06  ; 1.9469E-06   
   1.43568750000E+06; -4.41236E-07  ; 3.29206E-06  
   1.43737500000E+06;  4.22773E-07  ; 3.77146E-06  
   1.43906250000E+06;  2.2085E-07   ; 2.13542E-06  
   1.44075000000E+06; -2.59097E-06  ; 4.03997E-06  
   1.44243750000E+06;  1.04755E-08  ; 2.62611E-06  
   1.44412500000E+06;  8.75947E-07  ; 3.71881E-06  
   1.44581250000E+06;  7.01178E-07  ; 3.73067E-06  
   1.44750000000E+06; -1.22757E-08  ; 1.38721E-06  
   1.44918750000E+06; -2.10091E-07  ; 1.18745E-06  
   1.45087500000E+06; -2.06225E-06  ; 2.41678E-06  
   1.45256250000E+06; -1.52591E-06  ; 1.91968E-06  
   1.45425000000E+06; -3.98044E-07  ;-6.16545E-07  
   1.45593750000E+06;  3.91409E-07  ; 2.75154E-06  
   1.45762500000E+06; -5.01519E-07  ; 2.98854E-06  
   1.45931250000E+06; -1.42357E-07  ; 1.37674E-06  
   1.46100000000E+06;  2.04134E-06  ; 2.8847E-06   
   1.46268750000E+06; -2.0911E-06   ; 2.45291E-06  
   1.46437500000E+06; -2.28737E-06  ; 3.14731E-06  
   1.46606250000E+06; -2.0467E-06   ; 1.7056E-06   
   1.46775000000E+06;  8.61408E-07  ; 1.10364E-06  
   1.46943750000E+06;  1.21453E-06  ; 2.53842E-06  
   1.47112500000E+06; -7.84418E-08  ; 2.68029E-06  
   1.47281250000E+06; -8.66768E-08  ; 2.41741E-06  
   1.47450000000E+06; -1.50766E-06  ; 4.91389E-06  
   1.47618750000E+06; -2.63722E-06  ; 3.44425E-06  
   1.47787500000E+06;  1.88661E-06  ; 4.17896E-06  
   1.47956250000E+06; -6.67171E-07  ; 2.70406E-06  
   1.48125000000E+06; -2.79353E-07  ; 3.8475E-06   
   1.48293750000E+06; -1.34433E-06  ; 3.29391E-06  
   1.48462500000E+06; -1.74858E-06  ; 1.51015E-06  
   1.48631250000E+06;  4.49336E-07  ; 2.94553E-06  
   1.48800000000E+06; -1.62691E-06  ; 5.15306E-06  
   1.48968750000E+06; -8.80027E-07  ; 2.32821E-06  
   1.49137500000E+06; -2.16482E-06  ; 2.85842E-06  
   1.49306250000E+06; -1.89141E-06  ; 9.27905E-07  
   1.49475000000E+06; -1.60409E-06  ; 4.52518E-06  
   1.49643750000E+06;  4.12455E-07  ; 3.5398E-06   
   1.49812500000E+06;  5.17902E-07  ; 5.21527E-06  
   1.49981250000E+06; -1.32211E-06  ; 2.48659E-06  
   1.50150000000E+06; -1.23542E-06  ; 2.23026E-06  
   1.50318750000E+06;  1.53182E-06  ; 6.47924E-07  
   1.50487500000E+06; -4.74833E-07  ; 2.48625E-06  
   1.50656250000E+06; -2.66414E-07  ; 2.19569E-06  
   1.50825000000E+06; -1.37716E-06  ; 2.73675E-06  
   1.50993750000E+06; -2.31197E-06  ; 2.59747E-06  
   1.51162500000E+06; -2.17614E-06  ; 1.32269E-06  
   1.51331250000E+06;  2.42616E-07  ; 5.10523E-07  
   1.51500000000E+06; -4.13599E-07  ; 1.02371E-06  
   1.51668750000E+06; -1.23992E-06  ; 1.28384E-06  
   1.51837500000E+06;  6.87607E-07  ; 3.88347E-06  
   1.52006250000E+06;  3.3644E-07   ; 2.32395E-06  
   1.52175000000E+06;  3.23712E-07  ; 4.05125E-06  
   1.52343750000E+06; -5.68754E-07  ; 1.45647E-06  
   1.52512500000E+06;  4.64509E-07  ; 2.00699E-06  
   1.52681250000E+06; -1.01925E-06  ; 1.23593E-06  
   1.52850000000E+06; -9.42887E-07  ; 3.22447E-06  
   1.53018750000E+06; -2.96577E-06  ; 2.0398E-06   
   1.53187500000E+06; -1.70976E-06  ; 2.75062E-06  
   1.53356250000E+06; -1.36286E-06  ; 1.87624E-06  
   1.53525000000E+06; -1.7311E-07   ; 1.95608E-06  
   1.53693750000E+06;  9.23472E-07  ; 1.72324E-06  
   1.53862500000E+06;  1.41184E-06  ; 2.90623E-06  
   1.54031250000E+06; -1.89535E-06  ; 2.37938E-06  
   1.54200000000E+06; -5.14123E-07  ; 1.3111E-06   
   1.54368750000E+06; -5.06865E-07  ; 1.25714E-06  
   1.54537500000E+06;  1.51376E-07  ; 2.45101E-06  
   1.54706250000E+06; -1.12817E-06  ; 4.64724E-06  
   1.54875000000E+06;  6.42175E-07  ; 3.68678E-06  
   1.55043750000E+06; -1.76374E-06  ; 2.34336E-06  
   1.55212500000E+06; -3.37908E-07  ; 2.46528E-06  
   1.55381250000E+06;  1.7733E-06   ; 1.71387E-06  
   1.55550000000E+06; -4.52628E-07  ; 1.90566E-06  
   1.55718750000E+06;  1.73053E-06  ; 3.04378E-06  
   1.55887500000E+06;  3.93395E-07  ; 1.79185E-06  
   1.56056250000E+06; -2.25812E-06  ; 3.23082E-06  
   1.56225000000E+06;  9.69801E-07  ; 3.30474E-06  
   1.56393750000E+06; -1.55586E-06  ; 2.02729E-06  
   1.56562500000E+06; -1.15904E-06  ; 3.80683E-06  
   1.56731250000E+06; -2.14019E-06  ; 2.35589E-06  
   1.56900000000E+06; -4.23704E-06  ; 3.9788E-06   
   1.57068750000E+06; -1.44178E-06  ; 3.42003E-06  
   1.57237500000E+06; -2.24949E-06  ; 2.58983E-06  
   1.57406250000E+06;  8.16431E-07  ; 2.37203E-06  
   1.57575000000E+06; -1.12027E-06  ; 2.36633E-06  
   1.57743750000E+06; -1.98388E-06  ; 2.90319E-06  
   1.57912500000E+06;  3.68657E-07  ; 2.39252E-06  
   1.58081250000E+06; -4.13181E-07  ; 1.25958E-06  
   1.58250000000E+06; -3.93082E-07  ; 3.16156E-07  
   1.58418750000E+06; -8.09113E-07  ; 9.54726E-07  
   1.58587500000E+06;  1.44005E-06  ; 2.12484E-06  
   1.58756250000E+06; -8.34873E-08  ; 2.63025E-06  
   1.58925000000E+06; -2.68681E-06  ; 3.58603E-06  
   1.59093750000E+06; -3.87142E-06  ; 2.38038E-06  
   1.59262500000E+06; -1.75595E-06  ; 1.18143E-06  
   1.59431250000E+06;  1.23344E-06  ; 2.06157E-06  
   1.59600000000E+06; -3.27881E-06  ; 2.31246E-06  
   1.59768750000E+06; -3.12317E-07  ; 2.45069E-07  
   1.59937500000E+06; -1.00416E-06  ; 3.21945E-06  
   1.60106250000E+06; -1.09641E-06  ; 3.75815E-06  
   1.60275000000E+06; -4.54279E-07  ; 2.54227E-06  
   1.60443750000E+06;  1.23653E-06  ; 2.65438E-06  
   1.60612500000E+06; -4.7541E-07   ; 1.73415E-06  
   1.60781250000E+06; -1.08815E-06  ; 2.97063E-06  
   1.60950000000E+06; -1.73943E-06  ; 2.78898E-06  
   1.61118750000E+06;  8.99402E-08  ; 2.10158E-06  
   1.61287500000E+06;  9.50878E-07  ; 2.92744E-06  
   1.61456250000E+06; -1.04642E-06  ; 3.88184E-06  
   1.61625000000E+06; -7.30584E-07  ; 3.57654E-06  
   1.61793750000E+06; -2.97276E-07  ; 3.02312E-06  
   1.61962500000E+06; -1.34472E-06  ;-1.78611E-07  
   1.62131250000E+06; -6.7602E-07   ; 1.58045E-06  
   1.62300000000E+06; -7.84049E-07  ; 1.88227E-06  
   1.62468750000E+06;  2.94649E-07  ; 3.28414E-06  
   1.62637500000E+06; -7.66464E-08  ; 3.09352E-06  
   1.62806250000E+06; -7.83565E-07  ; 1.9426E-06   
   1.62975000000E+06; -1.99962E-07  ; 2.91507E-06  
   1.63143750000E+06;  5.2149E-07   ; 4.29129E-06  
   1.63312500000E+06;  2.48855E-06  ; 1.81083E-06  
   1.63481250000E+06; -2.45887E-07  ; 3.02877E-06  
   1.63650000000E+06; -7.00064E-07  ; 3.34894E-06  
   1.63818750000E+06; -1.12538E-07  ; 1.87126E-06  
   1.63987500000E+06;  1.14412E-06  ; 4.74259E-06  
   1.64156250000E+06; -1.31334E-06  ; 9.72732E-07  
   1.64325000000E+06; -7.54456E-07  ; 2.71197E-06  
   1.64493750000E+06; -2.68131E-07  ; 1.60649E-06  
   1.64662500000E+06;  1.31696E-06  ; 2.17792E-06  
   1.64831250000E+06; -1.25928E-06  ; 1.32428E-06  
   1.65000000000E+06; -1.88371E-06  ; 2.68092E-06  
   1.65168750000E+06; -1.54778E-07  ; 2.09236E-06  
   1.65337500000E+06;  1.43923E-06  ; 2.14533E-06  
   1.65506250000E+06;  5.30235E-07  ; 1.83492E-06  
   1.65675000000E+06; -1.56566E-06  ; 1.17596E-06  
   1.65843750000E+06;  3.26058E-06  ; 1.19962E-06  
   1.66012500000E+06; -1.40461E-06  ; 4.10289E-06  
   1.66181250000E+06; -1.18444E-06  ; 1.7723E-06   
   1.66350000000E+06; -9.22487E-07  ; 2.33741E-06  
   1.66518750000E+06;  7.45536E-07  ; 2.09675E-06  
   1.66687500000E+06; -1.05994E-06  ; 4.92929E-06  
   1.66856250000E+06; -9.90951E-07  ; 1.34946E-06  
   1.67025000000E+06; -1.26383E-06  ; 3.69519E-06  
   1.67193750000E+06;  4.31684E-07  ; 1.89609E-07  
   1.67362500000E+06; -1.7312E-06   ; 2.5059E-06   
   1.67531250000E+06; -2.50038E-06  ; 8.28539E-07  
   1.67700000000E+06; -4.06594E-06  ; 2.95529E-06  
   1.67868750000E+06; -2.26682E-07  ; 2.57824E-07  
   1.68037500000E+06; -2.73343E-07  ; 3.56524E-06  
   1.68206250000E+06;  7.44146E-08  ; 1.2349E-06   
   1.68375000000E+06; -6.19831E-07  ; 1.78523E-06  
   1.68543750000E+06;  2.62987E-08  ; 3.76834E-06  
   1.68712500000E+06; -5.34922E-07  ; 1.63025E-06  
   1.68881250000E+06;  3.61204E-07  ; 1.29735E-06  
   1.69050000000E+06; -5.65156E-07  ; 3.66674E-06  
   1.69218750000E+06; -1.6185E-06   ; 2.41852E-06  
   1.69387500000E+06;  1.41611E-06  ; 2.07185E-06  
   1.69556250000E+06; -1.26991E-06  ; 2.24999E-06  
   1.69725000000E+06; -4.41088E-07  ; 3.88649E-06  
   1.69893750000E+06; -8.60908E-07  ; 3.65939E-06  
   1.70062500000E+06; -7.79833E-07  ; 3.68704E-06  
   1.70231250000E+06; -7.98167E-07  ; 1.60848E-06  
   1.70400000000E+06; -7.10502E-07  ; 9.26302E-07  
   1.70568750000E+06;  2.56219E-08  ; 1.97204E-06  
   1.70737500000E+06;  2.45235E-07  ; 3.28319E-06  
   1.70906250000E+06;  1.30405E-06  ; 2.12721E-06  
   1.71075000000E+06; -4.70468E-07  ; 3.04038E-06  
   1.71243750000E+06; -1.53313E-06  ; 1.67227E-06  
   1.71412500000E+06; -1.06473E-06  ; 2.05841E-06  
   1.71581250000E+06; -6.40318E-07  ; 2.12644E-06  
   1.71750000000E+06; -4.46826E-06  ; 1.81934E-06  
   1.71918750000E+06; -1.865E-07    ; 1.70803E-06  
   1.72087500000E+06; -6.02681E-07  ; 3.13079E-06  
   1.72256250000E+06; -8.79687E-07  ; 3.86551E-06  
   1.72425000000E+06; -1.4677E-06   ; 3.60234E-06  
   1.72593750000E+06;  4.55122E-07  ; 2.00996E-06  
   1.72762500000E+06;  1.26662E-06  ; 1.74441E-06  
   1.72931250000E+06;  4.14535E-07  ; 4.67816E-06  
   1.73100000000E+06; -3.3639E-07   ; 5.40474E-06  
   1.73268750000E+06; -1.69679E-06  ; 4.07475E-06  
   1.73437500000E+06; -2.42448E-06  ; 1.86496E-06  
   1.73606250000E+06; -4.3728E-07   ; 4.20999E-06  
   1.73775000000E+06;  1.10136E-06  ; 3.35065E-06  
   1.73943750000E+06; -4.38248E-07  ; 3.96489E-06  
   1.74112500000E+06; -2.30731E-07  ; 8.17706E-07  
   1.74281250000E+06;  4.29742E-07  ; 2.55052E-06  
   1.74450000000E+06;  4.18886E-07  ; 2.30667E-06  
   1.74618750000E+06;  2.39594E-07  ; 8.67965E-07  
   1.74787500000E+06;  3.3994E-07   ; 2.98007E-06  
   1.74956250000E+06;  1.19829E-06  ; 3.16366E-06  
   1.75125000000E+06; -1.39754E-06  ; 2.51634E-06  
   1.75293750000E+06; -1.09429E-06  ; 3.24437E-06  
   1.75462500000E+06; -7.48635E-07  ; 3.63768E-06  
   1.75631250000E+06; -8.18983E-07  ; 2.76967E-06  
   1.75800000000E+06;  1.37236E-06  ; 2.34582E-06  
   1.75968750000E+06;  3.27585E-07  ; 5.53518E-06  
   1.76137500000E+06; -5.86938E-07  ; 4.00484E-06  
   1.76306250000E+06;  4.47736E-07  ; 5.28457E-06  
   1.76475000000E+06; -1.89119E-06  ; 4.70862E-06  
   1.76643750000E+06; -1.98981E-06  ; 1.99634E-06  
   1.76812500000E+06; -1.3139E-06   ; 8.19441E-07  
   1.76981250000E+06; -7.13468E-07  ; 2.81763E-06  
   1.77150000000E+06; -9.93771E-07  ; 1.89569E-06  
   1.77318750000E+06;  3.97377E-07  ; 3.31444E-06  
   1.77487500000E+06;  9.34649E-07  ; 2.98582E-06  
   1.77656250000E+06;  2.18228E-07  ; 2.2513E-06   
   1.77825000000E+06; -1.65549E-06  ; 3.0267E-06   
   1.77993750000E+06; -8.03471E-07  ; 2.02561E-06  
   1.78162500000E+06; -2.10108E-07  ;-1.08459E-06  
   1.78331250000E+06;  8.82388E-08  ; 3.50404E-06  
   1.78500000000E+06; -1.92566E-06  ; 5.19988E-06  
   1.78668750000E+06; -3.73496E-07  ; 1.50224E-06  
   1.78837500000E+06;  4.49726E-07  ; 4.07932E-06  
   1.79006250000E+06; -7.51858E-07  ; 2.33277E-06  
   1.79175000000E+06;  7.61569E-07  ; 3.83708E-06  
   1.79343750000E+06; -8.04614E-07  ; 5.52712E-06  
   1.79512500000E+06;  1.77369E-06  ; 3.83553E-06  
   1.79681250000E+06; -9.04703E-07  ; 3.19641E-06  
   1.79850000000E+06; -2.2684E-06   ; 7.41997E-07  
   1.80018750000E+06; -1.84031E-07  ; 4.71326E-06  
   1.80187500000E+06;  2.27448E-08  ; 2.92807E-06  
   1.80356250000E+06;  2.06968E-07  ; 3.4126E-06   
   1.80525000000E+06;  5.35077E-07  ; 4.41622E-06  
   1.80693750000E+06; -1.51392E-06  ; 1.15863E-06  
   1.80862500000E+06; -2.29167E-06  ; 3.28128E-06  
   1.81031250000E+06; -1.99063E-06  ; 3.57466E-06  
   1.81200000000E+06; -6.56747E-07  ; 1.01944E-06  
   1.81368750000E+06; -4.80554E-07  ; 4.88045E-06  
   1.81537500000E+06; -2.72728E-07  ; 1.67924E-06  
   1.81706250000E+06; -1.43726E-06  ; 1.46457E-06  
   1.81875000000E+06; -2.09101E-06  ; 1.47644E-06  
   1.82043750000E+06;  2.32943E-07  ; 1.77551E-06  
   1.82212500000E+06;  1.06414E-06  ; 2.59208E-06  
   1.82381250000E+06; -1.34922E-06  ; 1.5134E-06   
   1.82550000000E+06; -2.76345E-07  ; 3.95212E-06  
   1.82718750000E+06; -9.70001E-07  ; 4.294E-06    
   1.82887500000E+06; -1.1881E-06   ; 3.00265E-06  
   1.83056250000E+06;  6.66626E-07  ; 2.44586E-06  
   1.83225000000E+06;  2.80175E-07  ; 1.33302E-06  
   1.83393750000E+06; -3.21886E-06  ; 3.7744E-06   
   1.83562500000E+06; -2.3976E-07   ; 3.02197E-06  
   1.83731250000E+06; -6.32685E-07  ; 1.63896E-06  
   1.83900000000E+06;  1.72225E-06  ; 1.94585E-06  
   1.84068750000E+06; -7.8356E-07   ; 3.53381E-06  
   1.84237500000E+06;  3.16878E-08  ; 4.25964E-06  
   1.84406250000E+06; -1.75798E-06  ; 3.82562E-06  
   1.84575000000E+06;  4.11985E-07  ; 2.3644E-06   
   1.84743750000E+06; -1.89232E-06  ; 4.40717E-06  
   1.84912500000E+06;  2.81466E-07  ; 4.94715E-06  
   1.85081250000E+06;  1.17573E-06  ; 2.09186E-06  
   1.85250000000E+06; -2.62571E-06  ; 4.14989E-06  
   1.85418750000E+06;  1.57821E-06  ; 2.02464E-06  
   1.85587500000E+06; -1.97626E-06  ; 3.48975E-06  
   1.85756250000E+06; -1.17597E-06  ; 2.14214E-06  
   1.85925000000E+06;  1.2887E-07   ; 3.30147E-06  
   1.86093750000E+06; -7.82973E-07  ; 2.64526E-06  
   1.86262500000E+06;  1.56898E-07  ; 2.2365E-06   
   1.86431250000E+06; -1.7164E-06   ; 4.5233E-06   
   1.86600000000E+06; -1.76477E-07  ; 1.48787E-06  
   1.86768750000E+06; -1.61277E-06  ; 4.74941E-06  
   1.86937500000E+06; -9.42801E-07  ; 3.50334E-06  
   1.87106250000E+06; -2.71679E-06  ; 3.83574E-06  
   1.87275000000E+06; -2.44208E-06  ; 4.43389E-06  
   1.87443750000E+06; -1.19097E-07  ; 2.10288E-06  
   1.87612500000E+06; -8.63391E-07  ; 3.40753E-06  
   1.87781250000E+06; -8.51581E-07  ; 1.27497E-06  
   1.87950000000E+06; -1.32664E-06  ; 3.10257E-06  
   1.88118750000E+06; -7.10357E-07  ; 3.40231E-06  
   1.88287500000E+06; -1.17418E-06  ; 3.95434E-06  
   1.88456250000E+06; -2.06252E-06  ; 1.68525E-06  
   1.88625000000E+06; -2.46307E-07  ; 5.06274E-06  
   1.88793750000E+06;  6.72575E-07  ; 2.89595E-06  
   1.88962500000E+06; -1.14698E-06  ; 3.12217E-06  
   1.89131250000E+06; -1.19812E-06  ; 3.94206E-06  
   1.89300000000E+06; -1.67011E-06  ; 2.49203E-06  
   1.89468750000E+06;  7.79175E-07  ; 4.61283E-06  
   1.89637500000E+06; -1.44206E-06  ; 2.03395E-06  
   1.89806250000E+06;  6.75511E-07  ; 3.66883E-06  
   1.89975000000E+06; -2.40105E-06  ; 1.29382E-06  
   1.90143750000E+06; -1.7364E-06   ; 4.2696E-06   
   1.90312500000E+06; -6.07356E-07  ; 2.67971E-06  
   1.90481250000E+06; -1.59524E-06  ; 2.98534E-06  
   1.90650000000E+06; -1.61475E-06  ; 3.07339E-06  
   1.90818750000E+06;  4.84791E-07  ; 2.58701E-06  
   1.90987500000E+06; -2.4393E-06   ; 1.2509E-06   
   1.91156250000E+06; -1.71633E-06  ; 2.92429E-06  
   1.91325000000E+06; -8.20749E-07  ; 3.11985E-06  
   1.91493750000E+06; -1.65063E-06  ; 2.86394E-06  
   1.91662500000E+06;  2.85371E-08  ; 2.78121E-06  
   1.91831250000E+06; -1.56094E-06  ; 1.4753E-06   
   1.92000000000E+06;  1.13138E-06  ; 1.79619E-06  
   1.92168750000E+06; -3.89188E-06  ; 2.35323E-06  
   1.92337500000E+06;  8.07116E-07  ; 2.64136E-06  
   1.92506250000E+06; -1.96722E-06  ; 2.30046E-06  
   1.92675000000E+06;  1.18818E-06  ; 1.96979E-06  
   1.92843750000E+06; -1.64327E-06  ; 2.75462E-06  
   1.93012500000E+06; -1.25898E-06  ; 7.69596E-07  
   1.93181250000E+06; -1.86806E-06  ; 4.11411E-06  
   1.93350000000E+06; -1.69018E-06  ; 4.19319E-06  
   1.93518750000E+06; -2.05694E-06  ; 3.97722E-06  
   1.93687500000E+06; -1.01144E-06  ; 2.49785E-06  
   1.93856250000E+06; -8.5097E-07   ; 2.41947E-06  
   1.94025000000E+06;  1.05696E-06  ; 2.5122E-06   
   1.94193750000E+06; -2.39259E-07  ; 4.10434E-06  
   1.94362500000E+06;  7.66257E-07  ; 1.82345E-06  
   1.94531250000E+06;  3.32393E-07  ; 5.16596E-08  
   1.94700000000E+06;  1.5912E-06   ; 2.11871E-06  
   1.94868750000E+06; -1.32275E-06  ; 2.3572E-06   
   1.95037500000E+06; -2.29069E-07  ; 2.66516E-06  
   1.95206250000E+06;  2.95455E-07  ; 2.00357E-06  
   1.95375000000E+06;  1.40532E-06  ; 3.14739E-06  
   1.95543750000E+06; -4.69503E-07  ; 5.99356E-06  
   1.95712500000E+06; -1.64055E-06  ; 3.80794E-06  
   1.95881250000E+06; -1.01507E-06  ; 1.40491E-06  
   1.96050000000E+06; -4.809E-06    ; 3.36562E-06  
   1.96218750000E+06; -1.03546E-06  ; 5.06318E-06  
   1.96387500000E+06;  6.78966E-07  ; 5.58406E-06  
   1.96556250000E+06; -1.94881E-06  ; 4.6462E-06   
   1.96725000000E+06; -4.87177E-07  ; 1.59274E-06  
   1.96893750000E+06;  5.08456E-07  ; 3.90977E-06  
   1.97062500000E+06; -9.79525E-07  ; 2.97882E-06  
   1.97231250000E+06; -4.43552E-07  ;-4.33908E-07  
   1.97400000000E+06; -1.33203E-06  ; 5.24968E-06  
   1.97568750000E+06; -1.70199E-06  ; 2.74163E-06  
   1.97737500000E+06; -3.49718E-08  ; 5.08495E-07  
   1.97906250000E+06; -4.42501E-07  ; 4.72605E-07  
   1.98075000000E+06; -2.9979E-06   ; 3.85211E-06  
   1.98243750000E+06; -8.2731E-07   ; 2.41772E-06  
   1.98412500000E+06; -5.35106E-07  ; 5.31683E-06  
   1.98581250000E+06; -1.21634E-06  ; 4.40598E-06  
   1.98750000000E+06; -1.14711E-06  ; 3.17324E-06  
   1.98918750000E+06;  1.03156E-06  ; 4.74848E-06  
   1.99087500000E+06; -2.42175E-06  ; 4.5376E-06   
   1.99256250000E+06;  5.39623E-07  ; 3.87382E-06  
   1.99425000000E+06; -7.42524E-07  ; 2.64621E-06  
   1.99593750000E+06;  4.27507E-08  ; 2.47689E-06  
   1.99762500000E+06; -1.6454E-06   ; 5.24789E-06  
   1.99931250000E+06;  1.03218E-06  ; 4.12808E-06  
   2.00100000000E+06;  4.82764E-07  ; 2.74827E-06  
   2.00268750000E+06;  5.27121E-07  ; 4.54009E-06  
   2.00437500000E+06; -1.22128E-06  ; 2.78878E-06  
   2.00606250000E+06; -2.26673E-06  ; 2.13126E-06  
   2.00775000000E+06; -1.50755E-06  ; 3.49437E-06  
   2.00943750000E+06;  1.77167E-06  ; 1.71792E-06  
   2.01112500000E+06; -9.70466E-07  ; 3.21261E-06  
   2.01281250000E+06; -1.04957E-06  ; 1.61949E-06  
   2.01450000000E+06;  4.08479E-07  ; 1.60595E-06  
   2.01618750000E+06; -6.90798E-07  ; 1.17539E-06  
   2.01787500000E+06; -1.30573E-06  ; 5.2343E-06   
   2.01956250000E+06; -9.64147E-07  ; 1.99517E-06  
   2.02125000000E+06; -1.76655E-06  ; 2.55629E-06  
   2.02293750000E+06; -4.72967E-07  ; 3.19912E-06  
   2.02462500000E+06;  1.18994E-07  ; 2.99167E-06  
   2.02631250000E+06; -7.75661E-07  ; 3.71198E-06  
   2.02800000000E+06;  8.82353E-07  ; 1.99142E-06  
   2.02968750000E+06;  1.29245E-07  ; 3.13009E-06  
   2.03137500000E+06; -2.17337E-06  ; 2.66512E-06  
   2.03306250000E+06;  1.98033E-07  ; 4.70459E-06  
   2.03475000000E+06;  1.55873E-06  ; 3.45032E-06  
   2.03643750000E+06;  6.76645E-07  ; 3.04024E-06  
   2.03812500000E+06; -1.32873E-07  ; 3.74968E-06  
   2.03981250000E+06; -3.83726E-07  ; 2.36706E-06  
   2.04150000000E+06; -9.57437E-07  ; 2.67525E-06  
   2.04318750000E+06;  3.7053E-07   ; 3.06827E-06  
   2.04487500000E+06;  3.37502E-06  ; 3.81037E-06  
   2.04656250000E+06;  1.6021E-06   ; 3.69232E-06  
   2.04825000000E+06; -5.67173E-07  ; 2.19199E-06  
   2.04993750000E+06; -2.91878E-06  ; 6.01586E-06  
   2.05162500000E+06;  1.04833E-06  ; 1.79485E-06  
   2.05331250000E+06; -1.3727E-06   ; 5.56725E-06  
   2.05500000000E+06; -1.72024E-06  ; 2.40635E-06  
   2.05668750000E+06; -2.27719E-06  ; 1.13382E-06  
   2.05837500000E+06; -8.47753E-07  ; 6.63609E-06  
   2.06006250000E+06; -5.83199E-07  ; 3.98463E-06  
   2.06175000000E+06;  1.0148E-06   ; 3.21637E-06  
   2.06343750000E+06; -3.1774E-07   ; 4.57158E-06  
   2.06512500000E+06; -1.25625E-06  ; 2.10192E-06  
   2.06681250000E+06; -1.57816E-07  ; 3.15907E-06  
   2.06850000000E+06; -9.40836E-07  ; 1.06761E-06  
   2.07018750000E+06; -8.91168E-07  ; 2.86201E-06  
   2.07187500000E+06; -5.23402E-07  ; 3.46557E-06  
   2.07356250000E+06; -1.49629E-06  ; 5.0206E-06   
   2.07525000000E+06; -9.49635E-07  ; 3.72268E-06  
   2.07693750000E+06; -2.70418E-06  ; 4.28317E-06  
   2.07862500000E+06;  1.11404E-06  ; 4.35623E-06  
   2.08031250000E+06; -9.50067E-07  ; 3.85045E-06  
   2.08200000000E+06; -1.01006E-06  ; 2.85728E-06  
   2.08368750000E+06; -1.93343E-06  ; 5.2023E-06   
   2.08537500000E+06; -2.38324E-06  ; 4.08932E-06  
   2.08706250000E+06; -7.21634E-07  ; 2.27646E-06  
   2.08875000000E+06;  6.12093E-07  ; 1.59774E-06  
   2.09043750000E+06; -3.06364E-10  ; 4.07247E-06  
   2.09212500000E+06;  7.45899E-07  ; 4.57144E-06  
   2.09381250000E+06;  1.32368E-06  ; 5.74924E-06  
   2.09550000000E+06; -8.7928E-07   ; 2.42412E-06  
   2.09718750000E+06; -6.82763E-07  ; 3.6216E-06   
   2.09887500000E+06; -8.62748E-07  ; 2.21825E-06  
   2.10056250000E+06; -6.8148E-07   ; 3.95662E-06  
   2.10225000000E+06; -2.65163E-06  ; 2.46379E-06  
   2.10393750000E+06;  1.02037E-07  ; 1.97782E-06  
   2.10562500000E+06; -1.31244E-06  ; 3.0017E-06   
   2.10731250000E+06; -1.5171E-06   ; 3.92107E-06  
   2.10900000000E+06; -2.14931E-06  ; 3.01946E-06  
   2.11068750000E+06; -3.12052E-07  ; 1.70061E-06  
   2.11237500000E+06; -1.751E-06    ; 3.02143E-06  
   2.11406250000E+06; -2.36028E-06  ; 2.54457E-06  
   2.11575000000E+06; -1.68005E-06  ; 2.48869E-06  
   2.11743750000E+06; -1.92E-06     ; 2.98015E-06  
   2.11912500000E+06; -1.47758E-06  ; 2.79365E-06  
   2.12081250000E+06;  1.03867E-06  ; 4.33692E-06  
   2.12250000000E+06;  2.76098E-07  ; 2.14049E-06  
   2.12418750000E+06; -3.96051E-08  ; 3.32824E-06  
   2.12587500000E+06; -2.00419E-06  ; 3.68799E-06  
   2.12756250000E+06;  2.75116E-07  ; 7.08036E-07  
   2.12925000000E+06; -5.11681E-07  ; 3.12939E-06  
   2.13093750000E+06; -5.42923E-07  ; 2.06995E-06  
   2.13262500000E+06; -1.15283E-06  ; 4.21027E-06  
   2.13431250000E+06; -1.26106E-06  ; 3.7951E-06   
   2.13600000000E+06; -2.18692E-06  ; 3.71846E-06  
   2.13768750000E+06; -1.82162E-06  ; 4.09417E-06  
   2.13937500000E+06; -9.55228E-07  ; 5.9915E-06   
   2.14106250000E+06;  2.63976E-07  ; 1.92759E-06  
   2.14275000000E+06; -1.3333E-06   ; 3.41083E-06  
   2.14443750000E+06;  1.43707E-06  ; 4.1373E-06   
   2.14612500000E+06; -1.08463E-06  ; 2.5674E-06   
   2.14781250000E+06; -8.8522E-08   ; 4.83726E-06  
   2.14950000000E+06; -1.11933E-06  ; 5.80902E-06  
   2.15118750000E+06; -5.41509E-07  ; 5.13013E-06  
   2.15287500000E+06; -7.16192E-07  ; 1.88887E-06  
   2.15456250000E+06; -2.17162E-07  ; 4.07416E-06  
   2.15625000000E+06; -4.51183E-07  ; 2.25622E-06  
   2.15793750000E+06;  1.06391E-07  ; 4.56016E-06  
   2.15962500000E+06;  3.46804E-07  ; 2.46994E-06  
   2.16131250000E+06; -1.25308E-06  ; 3.18537E-06  
   2.16300000000E+06; -1.60381E-06  ; 3.02354E-06  
   2.16468750000E+06; -1.93021E-06  ; 5.02267E-06  
   2.16637500000E+06; -3.13629E-07  ; 2.74022E-06  
   2.16806250000E+06;  3.33267E-07  ; 1.29961E-06  
   2.16975000000E+06; -1.15062E-06  ; 3.57596E-06  
   2.17143750000E+06;  8.99977E-07  ; 2.53456E-06  
   2.17312500000E+06; -1.83567E-06  ; 4.11859E-06  
   2.17481250000E+06; -2.00113E-06  ; 3.66448E-06  
   2.17650000000E+06; -3.30693E-06  ; 4.22871E-06  
   2.17818750000E+06;  1.86277E-06  ; 5.62719E-06  
   2.17987500000E+06; -1.03569E-06  ; 4.07288E-06  
   2.18156250000E+06; -2.85249E-07  ; 2.1286E-06   
   2.18325000000E+06; -1.13969E-06  ; 4.02705E-06  
   2.18493750000E+06;  7.21922E-07  ; 1.79622E-06  
   2.18662500000E+06; -2.24007E-07  ; 2.37546E-07  
   2.18831250000E+06; -9.81964E-07  ; 2.461E-06    
   2.19000000000E+06;  5.40876E-07  ; 3.39488E-07  
   2.19168750000E+06; -6.95231E-07  ; 2.36941E-06  
   2.19337500000E+06; -1.41021E-06  ; 3.28499E-06  
   2.19506250000E+06; -5.25967E-07  ; 4.26749E-06  
   2.19675000000E+06; -6.67499E-07  ; 1.37872E-06  
   2.19843750000E+06;  2.72143E-07  ; 3.63666E-06  
   2.20012500000E+06;  1.37034E-07  ; 4.19294E-06  
   2.20181250000E+06; -6.17366E-07  ; 1.18107E-06  
   2.20350000000E+06; -2.69683E-06  ; 4.0876E-06   
   2.20518750000E+06; -1.90846E-06  ; 4.23159E-06  
   2.20687500000E+06; -1.51463E-06  ; 6.07559E-06  
   2.20856250000E+06;  4.56071E-07  ; 2.86545E-06  
   2.21025000000E+06; -1.39603E-06  ; 5.39415E-06  
   2.21193750000E+06;  1.62488E-06  ; 7.99588E-06  
   2.21362500000E+06; -3.00931E-06  ; 2.55443E-06  
   2.21531250000E+06; -3.17402E-07  ; 4.62555E-06  
   2.21700000000E+06;  1.82438E-06  ; 3.18393E-06  
   2.21868750000E+06;  1.34564E-06  ; 1.17825E-06  
   2.22037500000E+06; -5.71995E-07  ; 1.30758E-06  
   2.22206250000E+06; -1.61082E-06  ; 4.57355E-07  
   2.22375000000E+06; -2.59254E-06  ; 1.94076E-06  
   2.22543750000E+06; -3.20863E-06  ; 5.67196E-06  
   2.22712500000E+06;  1.01197E-07  ; 5.88254E-06  
   2.22881250000E+06;  4.77854E-07  ; 3.83611E-06  
   2.23050000000E+06; -2.38679E-07  ; 1.49639E-06  
   2.23218750000E+06;  2.35168E-07  ; 1.62176E-06  
   2.23387500000E+06; -4.48046E-08  ; 3.37484E-06  
   2.23556250000E+06; -2.01393E-06  ; 3.9556E-06   
   2.23725000000E+06;  3.36277E-07  ; 1.97046E-06  
   2.23893750000E+06; -2.29128E-06  ; 3.90878E-06  
   2.24062500000E+06; -6.78166E-07  ; 1.18635E-06  
   2.24231250000E+06; -3.88501E-07  ; 5.47127E-06  
   2.24400000000E+06; -1.74831E-06  ; 3.3038E-06   
   2.24568750000E+06; -1.33676E-06  ; 3.83055E-06  
   2.24737500000E+06;  4.9411E-07   ; 3.03918E-06  
   2.24906250000E+06;  2.26042E-06  ; 5.66461E-06  
   2.25075000000E+06;  2.13715E-06  ; 5.2899E-06   
   2.25243750000E+06;  1.41633E-06  ; 2.5237E-06   
   2.25412500000E+06; -1.49895E-06  ; 3.2935E-06   
   2.25581250000E+06;  1.91812E-06  ; 4.83117E-06  
   2.25750000000E+06; -1.85672E-06  ; 1.56262E-06  
   2.25918750000E+06; -1.51457E-06  ; 4.28097E-06  
   2.26087500000E+06; -5.65388E-07  ; 5.73559E-06  
   2.26256250000E+06;  4.31321E-07  ; 2.38381E-06  
   2.26425000000E+06; -9.06909E-07  ; 2.86665E-07  
   2.26593750000E+06; -2.3506E-06   ;-6.48974E-07  
   2.26762500000E+06; -3.33376E-06  ; 4.72707E-06  
   2.26931250000E+06;  2.53005E-06  ; 5.18098E-06  
   2.27100000000E+06; -1.14494E-06  ; 4.62844E-06  
   2.27268750000E+06; -2.74067E-07  ; 3.49802E-06  
   2.27437500000E+06;  3.02957E-06  ; 4.35263E-06  
   2.27606250000E+06;  1.72382E-06  ; 4.53078E-06  
   2.27775000000E+06;  5.60897E-07  ; 2.89444E-06  
   2.27943750000E+06;  4.12216E-06  ;-4.68794E-06  
   2.28112500000E+06; -5.52867E-06  ;-1.17932E-06  
   2.28281250000E+06; -1.24272E-06  ; 1.05831E-06  
   2.28450000000E+06; -9.00553E-06  ; 7.07529E-06  
   2.28618750000E+06; -2.01447E-06  ; 7.10558E-06  
   2.28787500000E+06;  3.00272E-07  ; 6.98242E-06  
   2.28956250000E+06;  3.24845E-06  ; 3.9258E-06   
   2.29125000000E+06;  1.30999E-06  ; 2.37803E-06  
   2.29293750000E+06;  3.09652E-06  ; 1.55043E-06  
   2.29462500000E+06;  4.89587E-07  ;-2.49599E-06  
   2.29631250000E+06; -5.84522E-06  ; 3.84071E-06  
   2.29800000000E+06; -2.59808E-06  ; 6.63191E-06  
   2.29968750000E+06; -2.00891E-06  ; 2.54689E-06  
   2.30137500000E+06; -2.98822E-06  ; 1.72791E-06  
   2.30306250000E+06; -1.90037E-06  ; 2.93575E-06  
   2.30475000000E+06; -3.84977E-06  ; 5.03031E-06  
   2.30643750000E+06; -1.02666E-06  ; 6.49779E-06  
   2.30812500000E+06; -2.22117E-06  ; 3.89706E-06  
   2.30981250000E+06; -1.45892E-07  ; 1.81732E-06  
   2.31150000000E+06;  9.28322E-07  ; 8.62384E-06  
   2.31318750000E+06; -8.05724E-08  ; 4.91135E-06  
   2.31487500000E+06;  4.36735E-06  ; 3.78874E-06  
   2.31656250000E+06;  2.66998E-06  ; 2.59285E-06  
   2.31825000000E+06; -7.13969E-07  ; 3.88048E-06  
   2.31993750000E+06; -1.5728E-06   ; 4.17027E-06  
   2.32162500000E+06; -1.79028E-06  ; 1.48221E-06  
   2.32331250000E+06; -2.42527E-08  ; 3.12397E-06  
   2.32500000000E+06;  1.39473E-06  ; 3.6477E-06   
   2.32668750000E+06; -2.37296E-06  ; 1.53216E-06  
   2.32837500000E+06; -1.76885E-06  ; 2.25037E-06  
   2.33006250000E+06; -4.33366E-07  ; 4.52741E-06  
   2.33175000000E+06;  7.45647E-07  ; 4.27617E-06  
   2.33343750000E+06; -7.18692E-07  ; 3.69812E-06  
   2.33512500000E+06;  1.13087E-06  ; 4.34615E-06  
   2.33681250000E+06; -3.22255E-06  ; 3.99604E-06  
   2.33850000000E+06; -3.01331E-06  ; 3.20541E-06  
   2.34018750000E+06; -2.15184E-06  ; 1.29484E-06  
   2.34187500000E+06; -3.35145E-07  ; 5.64094E-07  
   2.34356250000E+06; -3.46261E-06  ; 3.67332E-06  
   2.34525000000E+06; -4.11312E-07  ; 5.58047E-06  
   2.34693750000E+06; -1.49871E-07  ; 3.46951E-06  
   2.34862500000E+06; -2.20894E-06  ; 2.77887E-06  
   2.35031250000E+06; -1.23997E-06  ; 3.78415E-06  
   2.35200000000E+06; -1.3066E-06   ; 2.92258E-06  
   2.35368750000E+06; -3.24829E-06  ; 3.73401E-06  
   2.35537500000E+06; -1.55551E-06  ; 3.18845E-06  
   2.35706250000E+06; -8.27914E-08  ; 1.95351E-06  
   2.35875000000E+06; -7.60707E-07  ; 2.60245E-06  
   2.36043750000E+06; -1.01147E-06  ; 4.31574E-06  
   2.36212500000E+06; -4.01613E-07  ; 9.0344E-07   
   2.36381250000E+06; -1.39866E-07  ; 3.68436E-06  
   2.36550000000E+06; -1.94312E-06  ; 5.72931E-06  
   2.36718750000E+06; -2.11871E-07  ; 3.75771E-06  
   2.36887500000E+06; -3.87951E-07  ; 2.02481E-06  
   2.37056250000E+06;  8.8198E-07   ; 1.71459E-06  
   2.37225000000E+06; -1.89396E-06  ; 4.81922E-06  
   2.37393750000E+06;  1.54337E-07  ; 4.56314E-06  
   2.37562500000E+06; -1.22076E-06  ; 1.02481E-06  
   2.37731250000E+06; -9.63715E-07  ; 2.85685E-06  
   2.37900000000E+06;  5.95804E-07  ; 2.91586E-06  
   2.38068750000E+06; -5.47159E-07  ; 4.32477E-06  
   2.38237500000E+06; -2.09564E-06  ; 4.70963E-06  
   2.38406250000E+06;  3.91859E-08  ; 3.02086E-06  
   2.38575000000E+06; -2.11926E-08  ; 4.60001E-06  
   2.38743750000E+06; -2.30445E-06  ; 7.62407E-07  
   2.38912500000E+06;  1.18332E-06  ; 4.07302E-06  
   2.39081250000E+06; -7.49745E-07  ; 2.9329E-06   
   2.39250000000E+06;  5.12509E-07  ; 4.60693E-06  
   2.39418750000E+06; -2.28764E-06  ; 4.51354E-06  
   2.39587500000E+06;  1.49139E-06  ; 4.58844E-06  
   2.39756250000E+06; -2.39832E-07  ; 4.71868E-06  
   2.39925000000E+06; -1.06062E-06  ; 2.86675E-06  
   2.40093750000E+06;  1.50431E-06  ; 5.0758E-06   
   2.40262500000E+06; -8.82341E-08  ; 5.37567E-06  
   2.40431250000E+06; -3.63847E-06  ; 3.41483E-06  
   2.40600000000E+06;  1.9703E-07   ; 1.95653E-06  
   2.40768750000E+06;  2.61691E-09  ; 4.91333E-06  
   2.40937500000E+06; -2.25175E-06  ; 3.59886E-06  
   2.41106250000E+06; -1.421E-06    ; 5.20125E-06  
   2.41275000000E+06; -1.37033E-06  ; 5.68601E-06  
   2.41443750000E+06;  9.19926E-07  ; 3.29476E-06  
   2.41612500000E+06; -2.11151E-06  ; 3.76726E-06  
   2.41781250000E+06; -1.94715E-06  ; 4.8474E-06   
   2.41950000000E+06; -1.38749E-06  ; 2.33397E-06  
   2.42118750000E+06; -1.54074E-07  ; 5.84655E-06  
   2.42287500000E+06; -1.12175E-06  ; 3.36426E-06  
   2.42456250000E+06; -1.23311E-06  ; 5.45496E-06  
   2.42625000000E+06; -2.67536E-07  ; 4.74197E-06  
   2.42793750000E+06;  4.2573E-07   ; 4.13435E-06  
   2.42962500000E+06; -1.7521E-06   ; 3.079E-06    
   2.43131250000E+06; -7.75692E-07  ; 6.01572E-06  
   2.43300000000E+06; -2.04131E-06  ; 2.15133E-06  
   2.43468750000E+06;  4.20224E-07  ; 5.95745E-06  
   2.43637500000E+06; -6.96042E-07  ; 5.71094E-06  
   2.43806250000E+06; -3.73526E-07  ; 3.70924E-06  
   2.43975000000E+06; -4.59253E-07  ; 3.65072E-06  
   2.44143750000E+06; -2.24418E-06  ; 2.43962E-06  
   2.44312500000E+06; -2.35854E-07  ; 5.05912E-06  
   2.44481250000E+06;  1.13378E-07  ; 5.1306E-06   
   2.44650000000E+06; -2.25221E-06  ; 4.30912E-06  
   2.44818750000E+06; -9.17079E-07  ; 3.17616E-06  
   2.44987500000E+06; -1.18073E-06  ; 5.08763E-06  
   2.45156250000E+06; -3.02846E-06  ; 3.43781E-06  
   2.45325000000E+06; -2.25151E-06  ; 1.75773E-06  
   2.45493750000E+06;  6.56593E-07  ; 4.82742E-06  
   2.45662500000E+06;  1.10266E-06  ; 4.48754E-06  
   2.45831250000E+06;  4.20747E-09  ; 6.53937E-06  
   2.46000000000E+06;  1.03345E-07  ; 4.46901E-06  
   2.46168750000E+06; -1.29216E-06  ; 2.44776E-06  
   2.46337500000E+06; -2.01832E-06  ; 5.27082E-06  
   2.46506250000E+06;  7.77543E-07  ; 3.18657E-06  
   2.46675000000E+06; -9.79148E-07  ; 4.42623E-06  
   2.46843750000E+06; -1.63301E-06  ; 5.09323E-06  
   2.47012500000E+06; -2.13736E-06  ; 3.50287E-06  
   2.47181250000E+06; -1.41513E-06  ; 5.25323E-06  
   2.47350000000E+06; -5.40676E-07  ; 4.28266E-06  
   2.47518750000E+06; -7.43434E-07  ; 5.85912E-06  
   2.47687500000E+06; -6.9616E-07   ; 2.68055E-06  
   2.47856250000E+06; -1.55009E-06  ; 3.04596E-06  
   2.48025000000E+06;  4.79933E-07  ; 5.39925E-06  
   2.48193750000E+06; -1.78718E-06  ; 2.57095E-06  
   2.48362500000E+06;  1.30147E-06  ; 4.2449E-06   
   2.48531250000E+06; -1.54359E-06  ; 2.94916E-06  
   2.48700000000E+06; -1.36955E-06  ; 5.18646E-06  
   2.48868750000E+06;  1.98473E-06  ; 5.88185E-06  
   2.49037500000E+06; -3.78103E-06  ; 5.34355E-06  
   2.49206250000E+06; -1.22397E-06  ; 2.42879E-06  
   2.49375000000E+06; -9.5294E-07   ; 4.57645E-06  
   2.49543750000E+06; -1.84716E-06  ; 4.34099E-06  
   2.49712500000E+06;  5.11302E-07  ; 3.56297E-06  
   2.49881250000E+06;  1.4008E-06   ; 6.69295E-06  
   2.50050000000E+06; -1.14178E-06  ; 3.74319E-06  
   2.50218750000E+06;  3.71813E-07  ; 3.83534E-06  
   2.50387500000E+06;  8.23654E-07  ; 2.91786E-06  
   2.50556250000E+06; -3.62958E-06  ; 3.91848E-06  
   2.50725000000E+06; -3.18727E-06  ; 4.16255E-06  
   2.50893750000E+06;  1.29188E-07  ; 2.70731E-06  
   2.51062500000E+06;  8.88547E-07  ; 5.89667E-06  
   2.51231250000E+06;  7.10385E-07  ; 6.24168E-06  
   2.51400000000E+06;  2.70891E-07  ; 4.12076E-06  
   2.51568750000E+06; -8.56264E-07  ; 4.76816E-06  
   2.51737500000E+06;  7.29647E-07  ; 5.94765E-06  
   2.51906250000E+06; -2.08461E-06  ; 1.96909E-06  
   2.52075000000E+06; -5.4263E-06   ; 4.3148E-06   
   2.52243750000E+06; -5.10643E-07  ; 3.81234E-06  
   2.52412500000E+06; -2.25066E-06  ; 2.96734E-06  
   2.52581250000E+06; -1.79708E-06  ; 1.62784E-06  
   2.52750000000E+06;  1.36556E-07  ; 5.50255E-06  
   2.52918750000E+06; -7.24697E-07  ; 4.63177E-06  
   2.53087500000E+06; -9.52018E-08  ; 4.71415E-06  
   2.53256250000E+06;  5.71968E-07  ; 4.04654E-06  
   2.53425000000E+06; -1.13748E-07  ; 3.71731E-06  
   2.53593750000E+06; -1.53572E-06  ; 3.63069E-06  
   2.53762500000E+06;  7.78209E-07  ; 6.72999E-06  
   2.53931250000E+06; -3.09707E-06  ; 3.48652E-06  
   2.54100000000E+06;  1.53441E-06  ; 3.73564E-06  
   2.54268750000E+06; -1.94481E-06  ; 4.2458E-06   
   2.54437500000E+06; -8.11449E-07  ; 4.04259E-06  
   2.54606250000E+06;  1.53471E-07  ; 3.24497E-06  
   2.54775000000E+06;  1.17835E-07  ; 2.64051E-06  
   2.54943750000E+06; -7.67325E-07  ; 3.53536E-06  
   2.55112500000E+06; -6.85505E-07  ; 5.79219E-06  
   2.55281250000E+06; -2.15859E-06  ; 4.12996E-06  
   2.55450000000E+06; -1.50147E-06  ; 2.89948E-06  
   2.55618750000E+06; -1.40681E-06  ; 5.55991E-06  
   2.55787500000E+06; -3.07416E-07  ; 3.51998E-06  
   2.55956250000E+06; -1.23529E-06  ; 4.06889E-06  
   2.56125000000E+06;  1.10967E-06  ; 3.33606E-06  
   2.56293750000E+06;  1.496E-07    ; 2.42726E-06  
   2.56462500000E+06; -1.38627E-06  ; 3.95935E-06  
   2.56631250000E+06;  2.46575E-07  ; 5.39537E-06  
   2.56800000000E+06; -1.04284E-06  ; 1.63735E-06  
   2.56968750000E+06; -1.50531E-06  ; 5.33331E-06  
   2.57137500000E+06;  9.66084E-07  ; 2.47993E-06  
   2.57306250000E+06; -7.57855E-07  ; 3.85884E-06  
   2.57475000000E+06; -1.04683E-06  ; 4.09483E-06  
   2.57643750000E+06; -1.82083E-06  ; 5.74881E-06  
   2.57812500000E+06; -3.76773E-08  ; 7.54363E-06  
   2.57981250000E+06;  1.05654E-06  ; 3.91039E-06  
   2.58150000000E+06; -1.6149E-06   ; 4.03093E-06  
   2.58318750000E+06;  8.366E-07    ; 3.25033E-06  
   2.58487500000E+06; -3.56235E-06  ; 4.80213E-06  
   2.58656250000E+06; -3.89272E-07  ; 4.02582E-06  
   2.58825000000E+06; -1.06443E-06  ; 3.61541E-06  
   2.58993750000E+06; -4.8476E-08   ; 3.39317E-06  
   2.59162500000E+06; -1.7516E-07   ; 3.67952E-06  
   2.59331250000E+06; -2.02777E-07  ; 2.85829E-06  
   2.59500000000E+06; -1.31239E-06  ; 4.46339E-06  
   2.59668750000E+06; -3.71735E-06  ; 5.30542E-06  
   2.59837500000E+06; -1.8391E-06   ; 4.48954E-06  
   2.60006250000E+06; -1.3559E-06   ; 2.16216E-06  
   2.60175000000E+06; -1.40031E-06  ; 5.91133E-06  
   2.60343750000E+06; -5.48616E-07  ; 6.43698E-06  
   2.60512500000E+06; -2.06365E-06  ; 3.89879E-06  
   2.60681250000E+06; -5.18034E-07  ; 5.83388E-06  
   2.60850000000E+06; -2.26936E-06  ; 4.86234E-06  
   2.61018750000E+06; -1.74206E-06  ; 4.60626E-06  
   2.61187500000E+06; -6.65453E-07  ; 4.3292E-06   
   2.61356250000E+06;  9.71911E-07  ; 4.9237E-06   
   2.61525000000E+06; -2.03684E-06  ; 5.18777E-06  
   2.61693750000E+06;  1.84059E-07  ; 4.6033E-06   
   2.61862500000E+06; -6.97613E-07  ; 3.39065E-06  
   2.62031250000E+06; -9.1955E-07   ; 3.52585E-06  
   2.62200000000E+06; -2.01311E-06  ; 3.31804E-06  
   2.62368750000E+06; -1.40973E-07  ; 5.02307E-06  
   2.62537500000E+06; -1.34245E-06  ; 4.50973E-06  
   2.62706250000E+06; -1.00567E-06  ; 3.51366E-06  
   2.62875000000E+06; -1.04724E-06  ; 4.83691E-06  
   2.63043750000E+06; -2.11406E-06  ; 3.10935E-06  
   2.63212500000E+06; -3.78409E-07  ; 4.40847E-06  
   2.63381250000E+06; -1.25937E-06  ; 5.34338E-06  
   2.63550000000E+06; -5.28024E-07  ; 3.14027E-06  
   2.63718750000E+06; -7.03909E-07  ; 6.21596E-06  
   2.63887500000E+06;  1.09724E-06  ; 2.38842E-06  
   2.64056250000E+06; -1.13756E-06  ; 4.47579E-06  
   2.64225000000E+06; -1.84659E-06  ; 4.93044E-06  
   2.64393750000E+06; -1.26789E-06  ; 3.58579E-06  
   2.64562500000E+06; -2.38441E-07  ; 3.99786E-06  
   2.64731250000E+06; -5.35251E-07  ; 2.79748E-06  
   2.64900000000E+06; -2.71672E-06  ; 2.28276E-06  
   2.65068750000E+06; -2.51029E-06  ; 4.75547E-06  
   2.65237500000E+06;  2.26506E-07  ; 4.4548E-06   
   2.65406250000E+06; -7.96258E-07  ; 4.31037E-06  
   2.65575000000E+06; -1.24007E-08  ; 1.78048E-06  
   2.65743750000E+06; -1.48527E-06  ; 4.35994E-06  
   2.65912500000E+06; -2.07276E-06  ; 2.36088E-06  
   2.66081250000E+06; -1.31377E-06  ; 4.01564E-06  
   2.66250000000E+06; -7.17747E-07  ; 4.60705E-06  
   2.66418750000E+06; -1.369E-06    ; 2.01696E-06  
   2.66587500000E+06; -8.86224E-07  ; 4.39693E-06  
   2.66756250000E+06; -2.67115E-06  ; 5.21921E-06  
   2.66925000000E+06; -1.39215E-06  ; 4.25366E-06  
   2.67093750000E+06;  3.28434E-07  ; 5.6405E-06   
   2.67262500000E+06; -3.02007E-06  ; 5.02064E-06  
   2.67431250000E+06; -1.95137E-06  ; 4.11075E-06  
   2.67600000000E+06;  7.04485E-07  ; 4.94115E-06  
   2.67768750000E+06; -1.76289E-06  ; 4.57507E-06  
   2.67937500000E+06;  6.70092E-07  ;-2.17382E-07  
   2.68106250000E+06; -2.93917E-06  ; 4.57324E-06  
   2.68275000000E+06; -2.9747E-07   ; 2.41233E-06  
   2.68443750000E+06; -1.91142E-08  ; 2.70378E-06  
   2.68612500000E+06; -1.93079E-06  ; 2.71857E-06  
   2.68781250000E+06;  2.28053E-06  ; 4.68091E-06  
   2.68950000000E+06; -9.94435E-07  ; 3.1001E-06   
   2.69118750000E+06;  1.93157E-07  ; 2.51535E-06  
   2.69287500000E+06; -2.25449E-06  ; 4.98556E-06  
   2.69456250000E+06; -1.2445E-06   ; 4.03733E-06  
   2.69625000000E+06; -1.16518E-06  ; 3.26675E-06  
   2.69793750000E+06; -6.56728E-07  ; 3.12667E-06  
   2.69962500000E+06; -1.29799E-06  ; 3.14424E-06  
   2.70131250000E+06;  6.81484E-07  ; 3.46661E-06  
   2.70300000000E+06;  1.00734E-07  ; 3.71291E-06  
   2.70468750000E+06;  9.09128E-07  ; 4.85862E-06  
   2.70637500000E+06; -1.20694E-06  ; 4.59648E-06  
   2.70806250000E+06;  1.02317E-06  ; 3.44944E-06  
   2.70975000000E+06; -1.92979E-06  ; 4.39219E-06  
   2.71143750000E+06; -2.00298E-06  ; 2.81972E-06  
   2.71312500000E+06; -1.13862E-06  ; 3.68703E-06  
   2.71481250000E+06; -1.60598E-06  ; 4.2305E-06   
   2.71650000000E+06;  6.79584E-08  ; 5.10537E-06  
   2.71818750000E+06;  1.84074E-06  ; 3.92823E-06  
   2.71987500000E+06; -1.83215E-06  ; 4.61677E-06  
   2.72156250000E+06; -9.93516E-07  ; 4.21389E-06  
   2.72325000000E+06;  8.24547E-07  ; 4.85483E-06  
   2.72493750000E+06; -4.90865E-07  ; 4.94365E-06  
   2.72662500000E+06; -1.9658E-06   ; 3.41151E-06  
   2.72831250000E+06; -5.5823E-07   ; 3.97422E-06  
   2.73000000000E+06; -1.66283E-06  ; 6.5117E-06   
   2.73168750000E+06;  1.04572E-06  ; 3.8239E-06   
   2.73337500000E+06; -2.44761E-06  ; 3.10018E-06  
   2.73506250000E+06; -2.72859E-06  ; 2.78588E-06  
   2.73675000000E+06;  3.20739E-07  ; 4.24585E-06  
   2.73843750000E+06; -3.15508E-06  ; 3.65626E-06  
   2.74012500000E+06; -3.8354E-07   ; 4.32945E-06  
   2.74181250000E+06; -6.69185E-07  ; 7.20931E-06  
   2.74350000000E+06; -3.61959E-07  ; 6.62614E-06  
   2.74518750000E+06; -1.67522E-06  ; 4.05942E-06  
   2.74687500000E+06;  3.22298E-08  ; 4.41408E-06  
   2.74856250000E+06; -1.50982E-07  ; 5.00713E-06  
   2.75025000000E+06; -1.71855E-06  ; 5.69989E-06  
   2.75193750000E+06; -1.50242E-06  ; 5.34947E-06  
   2.75362500000E+06;  9.47065E-07  ; 4.00435E-06  
   2.75531250000E+06;  1.70615E-07  ; 3.43885E-06  
   2.75700000000E+06; -2.52745E-06  ; 4.94184E-06  
   2.75868750000E+06; -3.79934E-06  ; 3.29187E-06  
   2.76037500000E+06;  1.53912E-06  ; 4.13482E-06  
   2.76206250000E+06;  6.84651E-08  ; 4.74656E-06  
   2.76375000000E+06; -8.31405E-07  ; 5.09675E-06  
   2.76543750000E+06; -9.05845E-07  ; 5.49167E-06  
   2.76712500000E+06;  2.89487E-08  ; 6.51845E-06  
   2.76881250000E+06; -3.47301E-07  ; 3.08027E-06  
   2.77050000000E+06; -9.87983E-07  ; 6.85859E-06  
   2.77218750000E+06; -1.7185E-06   ; 3.92387E-06  
   2.77387500000E+06; -6.34727E-07  ; 5.09343E-06  
   2.77556250000E+06; -8.34753E-08  ; 1.93273E-06  
   2.77725000000E+06;  1.41523E-06  ; 3.01668E-06  
   2.77893750000E+06; -1.56415E-06  ; 2.80383E-06  
   2.78062500000E+06; -1.98981E-06  ; 5.95963E-06  
   2.78231250000E+06; -1.97804E-06  ; 4.66026E-06  
   2.78400000000E+06; -2.52296E-06  ; 3.33733E-06  
   2.78568750000E+06; -2.09323E-06  ; 4.41085E-06  
   2.78737500000E+06;  3.01904E-07  ; 5.22262E-06  
   2.78906250000E+06; -2.02364E-06  ; 4.30066E-06  
   2.79075000000E+06; -2.22957E-06  ; 5.77864E-06  
   2.79243750000E+06; -9.27591E-07  ; 3.30154E-06  
   2.79412500000E+06; -1.83806E-06  ; 2.96755E-06  
   2.79581250000E+06; -2.35511E-06  ; 2.73907E-06  
   2.79750000000E+06;  9.22282E-07  ; 1.86828E-06  
   2.79918750000E+06; -6.77387E-07  ; 2.20562E-06  
   2.80087500000E+06; -3.68715E-06  ; 1.43182E-06  
   2.80256250000E+06;  8.88046E-08  ; 5.06106E-06  
   2.80425000000E+06; -3.04547E-06  ; 3.67183E-06  
   2.80593750000E+06; -3.95504E-08  ; 6.38685E-06  
   2.80762500000E+06; -2.90452E-06  ; 5.19678E-06  
   2.80931250000E+06;  4.39974E-07  ; 5.15706E-06  
   2.81100000000E+06; -6.56686E-07  ; 4.05135E-06  
   2.81268750000E+06; -1.50217E-06  ; 2.63129E-06  
   2.81437500000E+06; -9.35229E-07  ; 3.15532E-06  
   2.81606250000E+06; -6.62024E-07  ; 6.25106E-06  
   2.81775000000E+06; -6.99711E-07  ; 4.93573E-06  
   2.81943750000E+06; -1.2121E-06   ; 4.66901E-06  
   2.82112500000E+06;  9.19442E-07  ; 6.08814E-06  
   2.82281250000E+06; -8.61644E-07  ; 5.27022E-06  
   2.82450000000E+06; -2.85491E-06  ; 4.29376E-06  
   2.82618750000E+06; -4.38395E-07  ; 4.12393E-06  
   2.82787500000E+06; -5.30835E-07  ; 6.58469E-06  
   2.82956250000E+06; -5.03255E-08  ; 4.17702E-06  
   2.83125000000E+06; -1.68936E-06  ; 2.9244E-06   
   2.83293750000E+06; -1.57152E-06  ; 2.6226E-06   
   2.83462500000E+06; -2.29138E-06  ; 3.76004E-06  
   2.83631250000E+06; -1.77949E-06  ; 3.43805E-06  
   2.83800000000E+06; -1.07275E-06  ; 3.94007E-06  
   2.83968750000E+06; -2.07031E-06  ; 3.80314E-06  
   2.84137500000E+06; -1.8079E-06   ; 2.33E-06     
   2.84306250000E+06; -2.83702E-07  ; 3.9174E-06   
   2.84475000000E+06; -1.72361E-06  ; 3.73888E-06  
   2.84643750000E+06; -2.6619E-06   ; 4.36789E-06  
   2.84812500000E+06; -1.34283E-06  ; 3.72291E-06  
   2.84981250000E+06; -5.78921E-07  ; 2.94712E-06  
   2.85150000000E+06; -2.87967E-06  ; 3.26798E-06  
   2.85318750000E+06; -1.40249E-06  ; 1.84013E-06  
   2.85487500000E+06; -2.25633E-06  ; 3.82976E-06  
   2.85656250000E+06; -9.81053E-07  ; 4.46353E-06  
   2.85825000000E+06; -8.55161E-07  ; 4.94546E-06  
   2.85993750000E+06; -9.58188E-07  ; 6.34103E-06  
   2.86162500000E+06; -2.45571E-07  ; 6.18169E-06  
   2.86331250000E+06; -6.06881E-07  ; 6.59837E-06  
   2.86500000000E+06; -4.4745E-07   ; 4.17177E-06  
   2.86668750000E+06; -3.58889E-07  ; 4.03108E-06  
   2.86837500000E+06; -1.46645E-07  ; 3.44192E-06  
   2.87006250000E+06;  3.94902E-07  ; 3.71753E-06  
   2.87175000000E+06;  1.2515E-06   ; 4.72232E-06  
   2.87343750000E+06; -5.82876E-07  ; 3.04215E-06  
   2.87512500000E+06;  1.51392E-07  ; 4.06427E-06  
   2.87681250000E+06; -1.09284E-06  ; 2.15861E-06  
   2.87850000000E+06; -1.29048E-06  ; 5.13237E-06  
   2.88018750000E+06; -7.27525E-07  ; 3.87338E-06  
   2.88187500000E+06; -2.73503E-06  ; 7.94499E-06  
   2.88356250000E+06; -1.87544E-06  ; 3.71107E-06  
   2.88525000000E+06; -1.49309E-06  ; 6.84881E-06  
   2.88693750000E+06;  7.70197E-08  ; 5.48696E-06  
   2.88862500000E+06; -1.15718E-06  ; 2.85705E-06  
   2.89031250000E+06; -2.11401E-06  ; 3.73146E-06  
   2.89200000000E+06; -1.49743E-06  ; 5.92374E-06  
   2.89368750000E+06;  2.3704E-08   ; 2.32378E-06  
   2.89537500000E+06; -3.10606E-06  ; 2.24739E-06  
   2.89706250000E+06; -1.71544E-06  ; 4.12742E-06  
   2.89875000000E+06; -1.19852E-06  ; 6.12869E-06  
   2.90043750000E+06; -8.23587E-07  ; 5.40791E-06  
   2.90212500000E+06; -5.67291E-07  ; 5.04446E-06  
   2.90381250000E+06;  1.5626E-06   ; 4.7091E-06   
   2.90550000000E+06; -1.97709E-06  ; 5.8371E-06   
   2.90718750000E+06; -5.86039E-07  ; 4.40194E-06  
   2.90887500000E+06;  2.22818E-07  ; 4.69327E-06  
   2.91056250000E+06;  1.32189E-06  ; 4.21586E-06  
   2.91225000000E+06; -7.62278E-07  ; 5.83291E-06  
   2.91393750000E+06; -2.78718E-07  ; 5.2826E-06   
   2.91562500000E+06;  4.24074E-07  ; 3.85754E-06  
   2.91731250000E+06; -1.72667E-07  ; 6.40007E-06  
   2.91900000000E+06; -1.43789E-06  ; 4.90751E-06  
   2.92068750000E+06; -1.61224E-06  ; 4.38049E-06  
   2.92237500000E+06; -3.32311E-06  ; 4.16179E-06  
   2.92406250000E+06; -1.35588E-06  ; 6.20984E-06  
   2.92575000000E+06; -2.26546E-06  ; 5.18944E-06  
   2.92743750000E+06;  4.43649E-07  ; 4.88293E-06  
   2.92912500000E+06;  6.75597E-07  ; 7.0729E-06   
   2.93081250000E+06; -1.32093E-06  ; 5.13384E-06  
   2.93250000000E+06; -1.47123E-06  ; 4.88173E-06  
   2.93418750000E+06; -7.59371E-07  ; 2.77035E-06  
   2.93587500000E+06; -9.94443E-07  ; 4.1634E-06   
   2.93756250000E+06; -2.21608E-06  ; 4.11209E-06  
   2.93925000000E+06;  1.78652E-06  ; 5.34382E-06  
   2.94093750000E+06; -9.70671E-07  ; 5.14946E-06  
   2.94262500000E+06; -1.22065E-06  ; 3.12969E-06  
   2.94431250000E+06; -2.62518E-06  ; 2.94048E-06  
   2.94600000000E+06; -1.01258E-06  ; 2.20024E-06  
   2.94768750000E+06;  6.0277E-07   ; 5.11245E-06  
   2.94937500000E+06; -7.15782E-07  ; 3.29369E-06  
   2.95106250000E+06; -2.44376E-06  ; 4.83172E-06  
   2.95275000000E+06; -1.72437E-06  ; 3.54804E-06  
   2.95443750000E+06; -2.93405E-06  ; 2.68824E-06  
   2.95612500000E+06;  1.56402E-06  ; 3.66589E-06  
   2.95781250000E+06; -2.05694E-08  ; 6.15182E-06  
   2.95950000000E+06; -1.60503E-06  ; 4.59867E-06  
   2.96118750000E+06; -1.94038E-06  ; 5.94018E-06  
   2.96287500000E+06;  1.72949E-06  ; 6.34861E-06  
   2.96456250000E+06;  3.16706E-07  ; 3.21433E-06  
   2.96625000000E+06;  2.37662E-06  ; 4.98016E-06  
   2.96793750000E+06; -1.23996E-06  ; 3.48496E-06  
   2.96962500000E+06; -2.25824E-06  ; 4.90745E-06  
   2.97131250000E+06;  8.40672E-07  ; 7.30972E-06  
   2.97300000000E+06; -1.41022E-06  ; 2.64432E-06  
   2.97468750000E+06; -4.46366E-07  ; 3.72426E-06  
   2.97637500000E+06; -7.58998E-07  ; 3.38637E-06  
   2.97806250000E+06; -3.05175E-06  ; 3.73486E-06  
   2.97975000000E+06; -3.08768E-06  ; 3.88892E-06  
   2.98143750000E+06; -1.04284E-06  ; 5.11636E-06  
   2.98312500000E+06; -7.46814E-07  ; 3.5269E-06   
   2.98481250000E+06;  5.47632E-07  ; 5.84573E-06  
   2.98650000000E+06;  1.06172E-06  ; 3.80832E-06  
   2.98818750000E+06; -1.20767E-06  ; 5.79284E-06  
   2.98987500000E+06; -2.46893E-06  ; 3.06638E-06  
   2.99156250000E+06; -5.71166E-08  ; 4.76903E-06  
   2.99325000000E+06; -1.65805E-06  ; 4.3189E-06   
   2.99493750000E+06; -3.60421E-06  ; 3.51649E-06  
   2.99662500000E+06; -1.96932E-06  ; 5.90409E-06  
   2.99831250000E+06; -1.19392E-06  ; 3.61335E-06  
   3.00000000000E+06; -3.94727E-06  ; 4.92767E-06  
