
  ZVRE, 2.05

  stimulus-start        ; stimulus-stop       ; stimulus-unit       ; nof-points; parameter-type; impedance-ohm
  3.00000000000E+05     ; 3.00000000000E+06   ; Hz                  ; 1601      ; RATIO_B2_B1   ; 50        

  conversion            ; time-domain         ; data-format         ; param-unit; smoothing     ; trace-math
  none                  ; none                ; RI                  ; none      ; none          ; none

  sweep-mode-type       ; notlinear-meas-mode 
  FUNDAMENTAL           ; none                


  freq              ;  reRATIO_B2_B ; imRATIO_B2_B  
   3.00000000000E+05; -3.46621E-07  ;-8.00446E-07  
   3.01687500000E+05; -4.91611E-07  ; 4.21655E-06  
   3.03375000000E+05; -1.69499E-06  ;-1.86532E-06  
   3.05062500000E+05; -5.29957E-07  ; 1.91615E-06  
   3.06750000000E+05;  5.27168E-07  ;-3.25803E-06  
   3.08437500000E+05; -1.38004E-06  ; 1.09942E-06  
   3.10125000000E+05;  4.26094E-06  ;-5.76316E-08  
   3.11812500000E+05;  3.35016E-07  ; 1.08892E-07  
   3.13500000000E+05; -1.33394E-06  ;-1.02048E-06  
   3.15187500000E+05;  7.07899E-07  ; 2.83323E-07  
   3.16875000000E+05; -7.91885E-07  ; 2.49081E-06  
   3.18562500000E+05; -3.76837E-06  ;-1.01161E-06  
   3.20250000000E+05; -3.71643E-07  ; 1.57114E-06  
   3.21937500000E+05;  9.39434E-07  ;-9.00272E-07  
   3.23625000000E+05; -3.97124E-07  ;-7.67259E-07  
   3.25312500000E+05;  1.69328E-06  ; 2.35943E-06  
   3.27000000000E+05;  8.41343E-07  ;-2.00379E-06  
   3.28687500000E+05;  7.53504E-07  ;-9.48586E-07  
   3.30375000000E+05; -2.01986E-06  ; 9.11104E-07  
   3.32062500000E+05;  2.14778E-06  ;-9.20451E-07  
   3.33750000000E+05;  3.25028E-08  ; 2.05918E-06  
   3.35437500000E+05;  2.76754E-07  ; 2.165E-06    
   3.37125000000E+05; -2.48701E-06  ;-2.43811E-07  
   3.38812500000E+05;  6.38009E-08  ; 2.28266E-06  
   3.40500000000E+05; -1.58115E-06  ; 1.15325E-06  
   3.42187500000E+05; -1.99728E-06  ; 1.28878E-06  
   3.43875000000E+05;  2.31724E-06  ; 1.48433E-06  
   3.45562500000E+05;  1.90995E-06  ; 2.18678E-06  
   3.47250000000E+05; -3.27674E-07  ;-9.67011E-07  
   3.48937500000E+05; -1.6994E-06   ; 3.00296E-06  
   3.50625000000E+05;  2.26361E-06  ;-1.01768E-07  
   3.52312500000E+05; -3.48862E-07  ;-1.05752E-08  
   3.54000000000E+05; -2.12401E-07  ;-9.95299E-07  
   3.55687500000E+05; -2.76923E-06  ; 2.2477E-06   
   3.57375000000E+05; -1.72708E-06  ; 5.82907E-07  
   3.59062500000E+05; -1.17295E-06  ; 1.81006E-06  
   3.60750000000E+05; -2.39465E-06  ; 5.21166E-07  
   3.62437500000E+05; -3.18936E-07  ; 2.02813E-06  
   3.64125000000E+05;  2.25878E-06  ; 1.93502E-06  
   3.65812500000E+05; -1.44056E-06  ;-2.13765E-09  
   3.67500000000E+05; -7.35689E-07  ; 1.3296E-06   
   3.69187500000E+05;  1.89929E-06  ;-2.06166E-07  
   3.70875000000E+05; -6.25871E-07  ; 4.52748E-07  
   3.72562500000E+05; -3.40622E-06  ; 1.67754E-06  
   3.74250000000E+05;  7.86916E-07  ;-3.56442E-07  
   3.75937500000E+05; -2.47948E-07  ; 9.48459E-07  
   3.77625000000E+05;  1.78161E-07  ; 1.20355E-06  
   3.79312500000E+05;  6.03277E-07  ; 1.7441E-06   
   3.81000000000E+05; -1.81387E-06  ;-6.40105E-07  
   3.82687500000E+05; -1.33995E-06  ;-3.8764E-07   
   3.84375000000E+05;  2.06406E-06  ;-1.02073E-06  
   3.86062500000E+05;  9.36612E-07  ; 2.08414E-06  
   3.87750000000E+05; -2.62879E-06  ;-3.03617E-07  
   3.89437500000E+05; -1.31994E-06  ; 3.79614E-07  
   3.91125000000E+05;  5.13272E-07  ;-1.89942E-07  
   3.92812500000E+05;  3.34129E-07  ;-7.59048E-08  
   3.94500000000E+05; -5.11313E-07  ; 4.42741E-07  
   3.96187500000E+05;  1.36875E-06  ; 2.01893E-07  
   3.97875000000E+05; -2.10482E-06  ;-2.03684E-06  
   3.99562500000E+05;  3.87749E-07  ; 4.73244E-07  
   4.01250000000E+05; -1.64393E-06  ;-1.14169E-06  
   4.02937500000E+05; -2.65587E-06  ;-8.23704E-07  
   4.04625000000E+05; -9.90421E-07  ; 1.73348E-06  
   4.06312500000E+05; -7.97321E-07  ; 7.10727E-07  
   4.08000000000E+05; -3.0952E-06   ; 1.20206E-06  
   4.09687500000E+05; -8.40406E-07  ; 1.03421E-06  
   4.11375000000E+05;  2.1794E-06   ; 3.688E-07    
   4.13062500000E+05; -1.63566E-06  ; 2.25126E-07  
   4.14750000000E+05; -3.15642E-07  ;-3.58009E-07  
   4.16437500000E+05; -1.70563E-07  ;-1.2716E-07   
   4.18125000000E+05;  6.2439E-07   ;-1.00962E-07  
   4.19812500000E+05; -1.47925E-07  ; 9.79643E-07  
   4.21500000000E+05; -1.06951E-06  ; 2.60943E-06  
   4.23187500000E+05;  3.81904E-07  ;-1.91271E-06  
   4.24875000000E+05;  1.30132E-06  ; 1.48591E-06  
   4.26562500000E+05;  1.89512E-06  ; 8.65454E-07  
   4.28250000000E+05;  6.35197E-07  ; 9.12082E-07  
   4.29937500000E+05;  3.9577E-07   ; 1.94865E-06  
   4.31625000000E+05; -1.67249E-06  ; 1.45042E-06  
   4.33312500000E+05; -1.53479E-06  ;-9.39034E-07  
   4.35000000000E+05; -7.08872E-07  ; 2.71494E-07  
   4.36687500000E+05; -2.58625E-07  ; 5.20903E-07  
   4.38375000000E+05; -7.47613E-07  ; 2.76033E-06  
   4.40062500000E+05;  1.10132E-06  ; 1.44157E-06  
   4.41750000000E+05;  1.9942E-07   ; 1.76816E-06  
   4.43437500000E+05; -9.84245E-07  ; 1.6393E-06   
   4.45125000000E+05; -1.5058E-06   ;-3.88345E-07  
   4.46812500000E+05; -4.84382E-07  ;-1.88345E-07  
   4.48500000000E+05; -1.1412E-06   ;-7.95298E-08  
   4.50187500000E+05; -1.43557E-06  ; 1.38007E-06  
   4.51875000000E+05;  2.83955E-06  ; 7.47783E-07  
   4.53562500000E+05;  7.32146E-07  ; 2.95847E-06  
   4.55250000000E+05; -4.61737E-07  ; 3.3145E-06   
   4.56937500000E+05;  2.51859E-08  ; 1.20837E-06  
   4.58625000000E+05;  9.77998E-07  ; 1.62467E-06  
   4.60312500000E+05; -3.65741E-07  ; 2.09015E-06  
   4.62000000000E+05;  1.14045E-07  ; 8.26391E-07  
   4.63687500000E+05; -2.66134E-07  ; 1.14297E-06  
   4.65375000000E+05; -2.78795E-06  ; 1.48836E-06  
   4.67062500000E+05; -2.14131E-06  ; 7.02291E-07  
   4.68750000000E+05; -1.38423E-06  ; 2.55012E-07  
   4.70437500000E+05;  1.36609E-07  ;-1.7649E-06   
   4.72125000000E+05; -1.38454E-06  ;-1.16663E-06  
   4.73812500000E+05; -1.41048E-06  ; 3.91323E-07  
   4.75500000000E+05;  1.79564E-06  ;-9.31281E-08  
   4.77187500000E+05; -6.58012E-07  ;-1.09268E-06  
   4.78875000000E+05;  8.0812E-07   ;-1.85011E-06  
   4.80562500000E+05; -8.11289E-07  ;-1.75309E-06  
   4.82250000000E+05; -1.9433E-06   ;-1.04481E-07  
   4.83937500000E+05;  9.92075E-07  ; 2.60326E-07  
   4.85625000000E+05;  1.90673E-06  ; 2.79561E-07  
   4.87312500000E+05; -1.40776E-07  ; 1.59714E-06  
   4.89000000000E+05; -4.61482E-07  ; 1.77152E-06  
   4.90687500000E+05;  2.48328E-06  ; 5.65887E-07  
   4.92375000000E+05;  7.97579E-07  ; 1.72494E-06  
   4.94062500000E+05;  2.0913E-07   ; 5.33066E-07  
   4.95750000000E+05; -3.16367E-07  ;-7.82957E-07  
   4.97437500000E+05; -1.9814E-06   ;-8.94284E-07  
   4.99125000000E+05;  1.74861E-06  ; 1.11149E-06  
   5.00812500000E+05;  8.48498E-07  ; 4.48769E-07  
   5.02500000000E+05; -1.41717E-06  ;-5.60119E-07  
   5.04187500000E+05; -7.32331E-07  ; 6.08049E-07  
   5.05875000000E+05;  3.90726E-08  ; 8.22898E-07  
   5.07562500000E+05;  6.10843E-07  ; 1.85693E-06  
   5.09250000000E+05;  2.16237E-06  ; 1.0734E-08   
   5.10937500000E+05;  1.20892E-07  ; 1.01988E-06  
   5.12625000000E+05;  7.67103E-08  ; 1.71879E-06  
   5.14312500000E+05;  6.50996E-07  ; 1.24478E-06  
   5.16000000000E+05; -3.10256E-06  ;-2.83363E-07  
   5.17687500000E+05;  7.39699E-07  ; 1.17211E-06  
   5.19375000000E+05;  1.87467E-06  ; 1.35648E-07  
   5.21062500000E+05; -1.25466E-06  ; 3.92374E-07  
   5.22750000000E+05;  6.01848E-07  ; 1.53967E-06  
   5.24437500000E+05; -6.83971E-07  ; 1.60316E-06  
   5.26125000000E+05; -2.12796E-06  ; 1.63427E-06  
   5.27812500000E+05; -6.91349E-07  ; 4.01949E-07  
   5.29500000000E+05; -2.51447E-07  ; 1.47982E-06  
   5.31187500000E+05;  1.22965E-06  ; 1.65922E-06  
   5.32875000000E+05; -1.58186E-07  ; 1.52602E-06  
   5.34562500000E+05;  2.88042E-07  ; 4.60751E-07  
   5.36250000000E+05; -2.18016E-06  ; 2.10542E-07  
   5.37937500000E+05;  2.57309E-07  ;-1.05536E-06  
   5.39625000000E+05;  2.58559E-06  ; 1.55396E-06  
   5.41312500000E+05; -1.99088E-07  ; 2.08318E-06  
   5.43000000000E+05;  9.81245E-07  ;-3.89802E-07  
   5.44687500000E+05; -1.67675E-06  ; 8.50357E-07  
   5.46375000000E+05; -3.6831E-07   ; 1.39021E-06  
   5.48062500000E+05; -4.13806E-07  ; 2.20461E-06  
   5.49750000000E+05;  6.75436E-07  ; 5.7925E-07   
   5.51437500000E+05;  8.63957E-08  ; 1.27759E-06  
   5.53125000000E+05;  3.88847E-07  ; 2.05393E-06  
   5.54812500000E+05; -2.34986E-07  ; 5.79282E-07  
   5.56500000000E+05;  2.31515E-06  ; 3.19723E-07  
   5.58187500000E+05;  1.49313E-06  ; 1.2525E-06   
   5.59875000000E+05; -1.35652E-07  ; 1.38494E-06  
   5.61562500000E+05;  1.34844E-06  ; 5.68694E-07  
   5.63250000000E+05;  6.86253E-07  ;-1.90608E-07  
   5.64937500000E+05; -2.46174E-07  ; 1.10775E-07  
   5.66625000000E+05; -2.07691E-07  ; 1.75501E-06  
   5.68312500000E+05;  2.26898E-06  ; 3.942E-07    
   5.70000000000E+05; -1.97506E-06  ;-1.63785E-07  
   5.71687500000E+05; -5.89237E-07  ;-2.49502E-07  
   5.73375000000E+05;  6.0865E-07   ; 1.46529E-06  
   5.75062500000E+05; -2.64865E-06  ;-1.45366E-07  
   5.76750000000E+05; -1.68268E-06  ; 2.67152E-08  
   5.78437500000E+05; -2.35044E-07  ;-6.54486E-07  
   5.80125000000E+05; -4.74661E-07  ; 2.02476E-06  
   5.81812500000E+05;  4.65803E-07  ; 2.84147E-07  
   5.83500000000E+05; -1.80522E-06  ; 1.29026E-06  
   5.85187500000E+05; -2.60788E-08  ; 3.23094E-06  
   5.86875000000E+05; -1.12531E-06  ; 3.07936E-07  
   5.88562500000E+05; -4.11934E-07  ; 4.02088E-07  
   5.90250000000E+05; -4.85949E-07  ; 1.52793E-06  
   5.91937500000E+05;  3.92329E-07  ; 1.51278E-06  
   5.93625000000E+05; -1.26411E-06  ; 2.5342E-06   
   5.95312500000E+05;  1.21249E-06  ; 1.01924E-06  
   5.97000000000E+05; -1.02448E-06  ; 6.23744E-07  
   5.98687500000E+05;  1.06361E-06  ; 1.84796E-06  
   6.00375000000E+05; -1.38668E-06  ; 9.07167E-07  
   6.02062500000E+05; -1.02483E-06  ; 1.89895E-06  
   6.03750000000E+05; -2.14363E-07  ; 7.41746E-07  
   6.05437500000E+05; -5.89079E-07  ; 5.23575E-07  
   6.07125000000E+05;  1.52155E-06  ;-9.1104E-07   
   6.08812500000E+05; -7.12072E-07  ; 1.00521E-07  
   6.10500000000E+05; -7.66361E-07  ; 1.81161E-07  
   6.12187500000E+05;  9.21439E-07  ; 1.52676E-06  
   6.13875000000E+05;  3.02169E-07  ; 1.67077E-06  
   6.15562500000E+05; -8.82592E-07  ; 6.48968E-07  
   6.17250000000E+05; -2.92117E-08  ;-1.30072E-07  
   6.18937500000E+05; -3.26274E-07  ; 5.2273E-07   
   6.20625000000E+05;  1.11205E-06  ;-9.89424E-08  
   6.22312500000E+05; -1.06327E-06  ; 8.37368E-07  
   6.24000000000E+05; -1.5921E-06   ; 4.60043E-07  
   6.25687500000E+05; -5.73817E-07  ;-1.64223E-07  
   6.27375000000E+05;  1.57338E-06  ;-1.17602E-07  
   6.29062500000E+05;  8.1339E-07   ; 1.44231E-06  
   6.30750000000E+05; -2.60655E-07  ; 3.03685E-06  
   6.32437500000E+05; -4.81143E-07  ; 1.84012E-06  
   6.34125000000E+05; -1.48143E-07  ; 1.24303E-06  
   6.35812500000E+05;  9.11759E-07  ; 5.73842E-07  
   6.37500000000E+05;  1.6745E-06   ; 1.87051E-06  
   6.39187500000E+05;  1.23284E-06  ; 6.35451E-07  
   6.40875000000E+05; -1.106E-06    ; 1.76626E-06  
   6.42562500000E+05;  1.55873E-06  ; 3.66439E-06  
   6.44250000000E+05;  2.02226E-06  ; 2.7613E-07   
   6.45937500000E+05; -7.39956E-07  ; 4.10318E-07  
   6.47625000000E+05;  1.50867E-06  ; 1.89347E-06  
   6.49312500000E+05;  2.71702E-09  ; 7.47242E-07  
   6.51000000000E+05;  6.8458E-07   ; 1.3739E-06   
   6.52687500000E+05; -2.277E-06    ; 1.96338E-06  
   6.54375000000E+05; -2.89604E-06  ; 4.67183E-07  
   6.56062500000E+05; -7.80158E-07  ; 6.81856E-07  
   6.57750000000E+05;  8.09429E-07  ; 1.8344E-06   
   6.59437500000E+05; -4.23177E-07  ; 2.43209E-06  
   6.61125000000E+05;  3.7586E-07   ; 2.13288E-06  
   6.62812500000E+05; -5.22794E-07  ; 3.20932E-06  
   6.64500000000E+05;  1.82715E-06  ;-8.64369E-08  
   6.66187500000E+05; -3.26578E-07  ; 1.29123E-06  
   6.67875000000E+05;  6.09732E-07  ; 4.60248E-07  
   6.69562500000E+05; -1.08295E-06  ; 1.40141E-06  
   6.71250000000E+05;  2.61893E-07  ;-4.51769E-08  
   6.72937500000E+05;  3.35364E-07  ; 4.17684E-07  
   6.74625000000E+05;  1.07739E-06  ; 7.98013E-07  
   6.76312500000E+05; -1.47525E-07  ; 1.37662E-06  
   6.78000000000E+05; -1.2194E-07   ;-4.21584E-07  
   6.79687500000E+05;  1.35442E-06  ;-4.32573E-07  
   6.81375000000E+05; -1.87258E-07  ; 1.10273E-06  
   6.83062500000E+05;  3.70847E-07  ; 1.13194E-06  
   6.84750000000E+05; -1.91429E-06  ; 4.60933E-07  
   6.86437500000E+05; -2.11133E-07  ; 4.46773E-07  
   6.88125000000E+05; -1.18552E-06  ; 5.34604E-07  
   6.89812500000E+05; -2.98824E-07  ;-3.57077E-07  
   6.91500000000E+05;  9.56989E-07  ; 2.57119E-06  
   6.93187500000E+05; -1.92383E-06  ; 2.19081E-06  
   6.94875000000E+05;  1.40128E-06  ; 4.57155E-08  
   6.96562500000E+05;  1.09034E-06  ; 6.5841E-07   
   6.98250000000E+05; -7.16453E-07  ; 1.46337E-06  
   6.99937500000E+05; -6.55636E-08  ; 7.00947E-07  
   7.01625000000E+05;  4.89214E-07  ; 1.87307E-06  
   7.03312500000E+05;  4.90389E-07  ; 2.12347E-06  
   7.05000000000E+05;  6.75776E-08  ; 4.46442E-07  
   7.06687500000E+05; -1.35323E-06  ; 3.95554E-07  
   7.08375000000E+05; -2.61836E-06  ; 1.13646E-07  
   7.10062500000E+05; -2.21663E-06  ; 1.17458E-06  
   7.11750000000E+05; -8.28709E-07  ; 1.96027E-06  
   7.13437500000E+05; -1.08279E-06  ; 3.57223E-06  
   7.15125000000E+05;  4.06257E-07  ;-2.90988E-07  
   7.16812500000E+05; -5.15079E-07  ; 6.89364E-07  
   7.18500000000E+05; -1.26931E-06  ; 6.8917E-07   
   7.20187500000E+05; -4.7614E-07   ; 6.84491E-07  
   7.21875000000E+05;  4.91084E-07  ; 3.53186E-07  
   7.23562500000E+05; -1.79638E-07  ; 7.37669E-07  
   7.25250000000E+05;  1.36679E-06  ; 8.74552E-07  
   7.26937500000E+05;  1.44654E-06  ; 6.84726E-07  
   7.28625000000E+05;  1.41246E-06  ; 2.44959E-06  
   7.30312500000E+05;  7.48773E-07  ; 1.53165E-06  
   7.32000000000E+05; -7.97371E-07  ; 3.36387E-07  
   7.33687500000E+05; -2.9573E-07   ; 4.2676E-07   
   7.35375000000E+05; -3.35355E-07  ; 2.85322E-06  
   7.37062500000E+05; -1.12746E-06  ; 5.80038E-07  
   7.38750000000E+05; -7.6059E-07   ; 1.2423E-06   
   7.40437500000E+05; -3.40602E-07  ; 9.00554E-07  
   7.42125000000E+05; -1.10679E-06  ; 4.52104E-07  
   7.43812500000E+05;  5.18999E-07  ; 1.06716E-06  
   7.45500000000E+05;  4.99213E-07  ;-1.36446E-06  
   7.47187500000E+05; -4.85606E-08  ; 7.56759E-07  
   7.48875000000E+05; -1.36669E-08  ; 2.42419E-06  
   7.50562500000E+05; -3.29284E-07  ; 6.84735E-07  
   7.52250000000E+05; -5.53877E-07  ; 1.20307E-06  
   7.53937500000E+05; -6.0561E-07   ; 1.95279E-07  
   7.55625000000E+05; -3.17664E-07  ; 9.84201E-07  
   7.57312500000E+05; -1.40795E-07  ; 2.50545E-06  
   7.59000000000E+05; -2.10191E-07  ; 6.18435E-07  
   7.60687500000E+05;  6.34189E-07  ; 1.88109E-06  
   7.62375000000E+05;  1.6327E-06   ; 9.25659E-07  
   7.64062500000E+05; -6.19475E-07  ; 5.57854E-07  
   7.65750000000E+05; -9.78966E-07  ; 2.96656E-06  
   7.67437500000E+05;  4.41991E-07  ; 2.09592E-06  
   7.69125000000E+05;  2.47029E-06  ; 2.22729E-07  
   7.70812500000E+05; -1.82813E-07  ; 3.32142E-07  
   7.72500000000E+05;  3.56343E-06  ; 2.33542E-06  
   7.74187500000E+05;  3.87432E-08  ; 3.40852E-08  
   7.75875000000E+05; -5.09239E-07  ; 2.85092E-06  
   7.77562500000E+05;  5.73326E-07  ; 2.66412E-06  
   7.79250000000E+05;  5.75679E-07  ; 2.63666E-06  
   7.80937500000E+05; -9.67831E-08  ; 7.57976E-07  
   7.82625000000E+05; -6.25106E-07  ; 8.88205E-07  
   7.84312500000E+05; -2.12548E-06  ; 2.80506E-06  
   7.86000000000E+05; -8.15835E-07  ; 1.22477E-06  
   7.87687500000E+05; -8.40662E-07  ; 3.02605E-07  
   7.89375000000E+05; -5.42973E-07  ;-6.25951E-07  
   7.91062500000E+05;  3.90808E-07  ; 1.69979E-06  
   7.92750000000E+05; -1.03264E-06  ; 2.70921E-06  
   7.94437500000E+05;  3.27321E-07  ; 4.18069E-07  
   7.96125000000E+05; -3.19458E-07  ; 8.02873E-07  
   7.97812500000E+05;  1.01814E-06  ; 1.49549E-06  
   7.99500000000E+05;  2.09862E-06  ; 3.03713E-07  
   8.01187500000E+05;  3.4046E-07   ; 2.81998E-07  
   8.02875000000E+05; -2.87365E-07  ; 5.82032E-07  
   8.04562500000E+05; -1.94028E-07  ; 1.34412E-06  
   8.06250000000E+05; -2.29814E-06  ; 5.07183E-07  
   8.07937500000E+05;  6.69271E-07  ;-5.06027E-07  
   8.09625000000E+05; -2.13591E-07  ; 1.75751E-06  
   8.11312500000E+05; -4.35043E-07  ; 1.30127E-06  
   8.13000000000E+05;  3.69285E-07  ; 1.35021E-06  
   8.14687500000E+05;  2.93358E-07  ;-1.75788E-07  
   8.16375000000E+05; -1.40463E-06  ; 5.55498E-07  
   8.18062500000E+05; -8.8038E-07   ; 3.14887E-06  
   8.19750000000E+05;  1.18932E-07  ; 1.98413E-06  
   8.21437500000E+05;  1.1241E-06   ; 1.48392E-06  
   8.23125000000E+05;  1.10386E-07  ; 1.80351E-06  
   8.24812500000E+05;  5.28678E-09  ; 2.5251E-07   
   8.26500000000E+05; -1.22768E-06  ; 3.55065E-07  
   8.28187500000E+05; -1.06117E-06  ; 9.20268E-07  
   8.29875000000E+05; -1.13295E-07  ; 1.10003E-06  
   8.31562500000E+05;  2.1359E-06   ; 1.43975E-06  
   8.33250000000E+05; -1.20518E-06  ; 2.06763E-06  
   8.34937500000E+05; -1.56012E-06  ;-3.99492E-07  
   8.36625000000E+05;  9.98933E-08  ;-1.00065E-07  
   8.38312500000E+05;  1.69773E-07  ; 2.38481E-06  
   8.40000000000E+05;  7.0897E-07   ; 1.60539E-06  
   8.41687500000E+05; -5.06888E-07  ; 1.54607E-06  
   8.43375000000E+05;  6.43734E-07  ; 9.299E-07    
   8.45062500000E+05;  8.31929E-07  ; 1.33895E-06  
   8.46750000000E+05; -6.16903E-07  ; 1.71038E-06  
   8.48437500000E+05;  1.68744E-06  ; 1.33521E-06  
   8.50125000000E+05; -1.0592E-06   ; 2.08978E-06  
   8.51812500000E+05;  8.61138E-07  ; 2.97002E-06  
   8.53500000000E+05; -6.21855E-07  ; 9.7889E-08   
   8.55187500000E+05; -7.41684E-07  ; 9.5005E-07   
   8.56875000000E+05; -1.14621E-06  ; 1.91041E-06  
   8.58562500000E+05;  1.09274E-06  ; 2.15314E-06  
   8.60250000000E+05; -1.71078E-06  ;-6.66454E-08  
   8.61937500000E+05; -1.63945E-06  ; 1.00116E-06  
   8.63625000000E+05; -1.0347E-06   ; 1.59823E-06  
   8.65312500000E+05;  1.53517E-08  ; 1.50226E-06  
   8.67000000000E+05; -8.39085E-08  ; 3.9437E-07   
   8.68687500000E+05; -1.36428E-06  ; 1.65441E-06  
   8.70375000000E+05;  2.74922E-07  ; 2.11075E-06  
   8.72062500000E+05;  1.07455E-06  ; 1.35319E-06  
   8.73750000000E+05; -1.13884E-06  ; 2.67412E-07  
   8.75437500000E+05; -2.39796E-07  ; 2.16102E-06  
   8.77125000000E+05; -1.45348E-06  ; 3.88268E-07  
   8.78812500000E+05; -1.20911E-06  ; 1.19647E-06  
   8.80500000000E+05;  3.30104E-07  ; 3.0105E-06   
   8.82187500000E+05;  2.50922E-07  ; 7.84606E-07  
   8.83875000000E+05;  1.75225E-06  ; 1.57226E-06  
   8.85562500000E+05;  6.78498E-07  ; 1.50982E-06  
   8.87250000000E+05;  2.03467E-07  ; 1.97835E-06  
   8.88937500000E+05; -5.46394E-07  ; 1.92281E-06  
   8.90625000000E+05; -9.69975E-07  ; 5.27848E-07  
   8.92312500000E+05;  1.315E-07    ; 1.19464E-06  
   8.94000000000E+05; -1.24356E-06  ; 1.74412E-06  
   8.95687500000E+05;  7.41169E-08  ; 1.78366E-06  
   8.97375000000E+05; -3.48545E-07  ; 1.55053E-06  
   8.99062500000E+05; -7.27118E-07  ; 3.00629E-07  
   9.00750000000E+05; -1.81695E-06  ; 6.40266E-07  
   9.02437500000E+05; -7.40424E-07  ; 1.25369E-06  
   9.04125000000E+05; -3.40069E-07  ; 7.28065E-07  
   9.05812500000E+05;  4.51826E-07  ; 2.56834E-06  
   9.07500000000E+05; -1.75125E-07  ; 1.05333E-06  
   9.09187500000E+05; -1.03098E-06  ; 1.37195E-06  
   9.10875000000E+05; -9.78786E-07  ; 2.26511E-06  
   9.12562500000E+05; -1.6873E-06   ; 3.27163E-07  
   9.14250000000E+05;  5.47822E-07  ; 2.42232E-06  
   9.15937500000E+05; -1.66622E-07  ; 2.90741E-06  
   9.17625000000E+05; -5.05323E-07  ; 2.44685E-06  
   9.19312500000E+05; -2.06547E-07  ; 1.78274E-06  
   9.21000000000E+05; -8.45768E-07  ; 1.49965E-06  
   9.22687500000E+05; -9.48844E-07  ; 4.16865E-07  
   9.24375000000E+05;  3.30002E-07  ; 2.0526E-06   
   9.26062500000E+05; -1.4984E-06   ; 1.35233E-06  
   9.27750000000E+05; -5.64411E-07  ; 2.13191E-07  
   9.29437500000E+05;  2.52743E-07  ; 5.55008E-07  
   9.31125000000E+05;  5.84823E-07  ; 1.99411E-06  
   9.32812500000E+05; -1.10872E-06  ; 1.97918E-06  
   9.34500000000E+05; -1.24014E-06  ; 8.01349E-07  
   9.36187500000E+05;  5.21923E-07  ; 1.28708E-06  
   9.37875000000E+05; -1.41457E-06  ; 2.14188E-06  
   9.39562500000E+05; -1.82579E-06  ; 1.24022E-06  
   9.41250000000E+05;  8.40784E-07  ; 1.47806E-07  
   9.42937500000E+05; -7.24176E-07  ; 1.68782E-06  
   9.44625000000E+05; -1.56192E-07  ; 2.40828E-06  
   9.46312500000E+05; -2.6183E-06   ; 2.83901E-07  
   9.48000000000E+05;  1.86543E-07  ; 6.70182E-07  
   9.49687500000E+05; -5.94868E-07  ; 1.04445E-06  
   9.51375000000E+05; -1.56432E-07  ; 3.25676E-07  
   9.53062500000E+05; -6.17836E-07  ; 9.92177E-07  
   9.54750000000E+05;  6.43005E-07  ; 1.73156E-06  
   9.56437500000E+05;  4.55454E-07  ; 2.96086E-06  
   9.58125000000E+05;  3.54088E-08  ; 1.68897E-06  
   9.59812500000E+05; -8.46105E-07  ; 1.28624E-06  
   9.61500000000E+05; -5.66326E-07  ; 1.95408E-06  
   9.63187500000E+05; -6.70388E-07  ; 2.12858E-06  
   9.64875000000E+05; -3.93578E-07  ; 8.82949E-07  
   9.66562500000E+05; -1.10656E-06  ; 1.93253E-06  
   9.68250000000E+05; -3.96701E-07  ; 2.57929E-06  
   9.69937500000E+05; -7.4458E-07   ; 2.09322E-06  
   9.71625000000E+05; -1.2216E-06   ; 5.97059E-07  
   9.73312500000E+05;  2.17206E-07  ; 2.05553E-06  
   9.75000000000E+05;  2.33239E-07  ; 1.19584E-06  
   9.76687500000E+05; -4.10115E-07  ; 2.26836E-06  
   9.78375000000E+05; -2.76203E-07  ; 1.24626E-06  
   9.80062500000E+05;  6.5317E-07   ; 1.32544E-06  
   9.81750000000E+05; -5.30824E-09  ; 9.65609E-07  
   9.83437500000E+05;  1.28092E-06  ; 8.46731E-07  
   9.85125000000E+05;  1.06358E-07  ; 7.17698E-08  
   9.86812500000E+05;  9.15554E-07  ; 1.02506E-06  
   9.88500000000E+05;  2.0704E-07   ; 1.01102E-06  
   9.90187500000E+05; -2.06423E-06  ; 2.68467E-06  
   9.91875000000E+05; -3.73229E-07  ; 1.643E-06    
   9.93562500000E+05;  2.65178E-08  ; 1.43043E-06  
   9.95250000000E+05;  3.21066E-07  ; 1.42763E-06  
   9.96937500000E+05; -1.22844E-06  ; 8.71972E-07  
   9.98625000000E+05;  1.19488E-06  ; 2.42887E-06  
   1.00031250000E+06;  1.39164E-07  ; 1.91546E-06  
   1.00200000000E+06; -3.25496E-07  ;-3.98985E-07  
   1.00368750000E+06; -6.8087E-07   ; 2.10784E-07  
   1.00537500000E+06; -3.89196E-07  ; 7.39429E-08  
   1.00706250000E+06;  2.97266E-07  ; 2.31344E-06  
   1.00875000000E+06; -4.72477E-07  ; 2.27038E-06  
   1.01043750000E+06;  3.85013E-07  ; 1.17184E-06  
   1.01212500000E+06; -5.17888E-07  ; 1.74624E-06  
   1.01381250000E+06;  7.34605E-07  ; 1.22525E-06  
   1.01550000000E+06; -1.16792E-06  ; 1.85125E-06  
   1.01718750000E+06; -4.78087E-07  ; 7.56707E-07  
   1.01887500000E+06; -9.57804E-07  ; 2.91456E-06  
   1.02056250000E+06;  2.14616E-07  ; 1.55617E-06  
   1.02225000000E+06; -7.74318E-07  ; 1.68175E-06  
   1.02393750000E+06; -2.46614E-06  ; 8.04456E-07  
   1.02562500000E+06; -3.85023E-07  ; 2.60547E-06  
   1.02731250000E+06;  1.64937E-07  ; 2.89881E-07  
   1.02900000000E+06; -8.01387E-07  ; 2.26239E-06  
   1.03068750000E+06; -6.28068E-07  ; 1.77581E-06  
   1.03237500000E+06;  2.88844E-07  ; 2.73967E-06  
   1.03406250000E+06; -8.0451E-07   ; 3.02178E-06  
   1.03575000000E+06; -8.20268E-09  ; 1.40514E-07  
   1.03743750000E+06; -1.50837E-07  ; 6.06569E-07  
   1.03912500000E+06;  1.22256E-07  ; 3.96831E-07  
   1.04081250000E+06;  1.89177E-07  ; 9.55915E-07  
   1.04250000000E+06; -3.95277E-08  ; 5.09051E-07  
   1.04418750000E+06; -9.88087E-07  ; 6.04435E-07  
   1.04587500000E+06; -8.96364E-07  ; 1.5373E-06   
   1.04756250000E+06; -7.34232E-09  ; 2.27401E-06  
   1.04925000000E+06; -1.20433E-06  ; 1.5896E-06   
   1.05093750000E+06;  9.3048E-08   ; 2.76976E-06  
   1.05262500000E+06; -5.70037E-08  ; 1.39259E-07  
   1.05431250000E+06; -7.28564E-07  ; 2.03642E-06  
   1.05600000000E+06; -2.97618E-07  ; 9.86012E-07  
   1.05768750000E+06; -1.33851E-07  ; 1.59279E-06  
   1.05937500000E+06;  3.2194E-07   ; 7.19018E-07  
   1.06106250000E+06; -2.12596E-07  ; 1.47415E-06  
   1.06275000000E+06; -6.38865E-07  ;-1.06501E-07  
   1.06443750000E+06; -7.71671E-07  ; 9.96834E-07  
   1.06612500000E+06;  9.41683E-07  ; 1.93781E-06  
   1.06781250000E+06; -1.0293E-06   ;-8.06876E-08  
   1.06950000000E+06; -4.98824E-07  ; 1.52705E-06  
   1.07118750000E+06;  7.48421E-07  ; 6.75276E-07  
   1.07287500000E+06; -4.98996E-08  ; 2.09357E-06  
   1.07456250000E+06; -6.16367E-07  ; 1.12612E-06  
   1.07625000000E+06;  1.1518E-06   ; 1.08334E-06  
   1.07793750000E+06;  7.08914E-07  ; 1.00451E-07  
   1.07962500000E+06;  1.35856E-07  ; 1.59379E-06  
   1.08131250000E+06;  2.20887E-07  ; 1.21837E-06  
   1.08300000000E+06; -6.94326E-08  ; 1.78781E-06  
   1.08468750000E+06;  5.91537E-07  ;-2.92359E-08  
   1.08637500000E+06; -3.09836E-07  ; 1.85235E-06  
   1.08806250000E+06; -1.70383E-06  ; 3.39012E-06  
   1.08975000000E+06;  1.20724E-06  ; 1.52076E-06  
   1.09143750000E+06; -1.1937E-06   ; 1.57413E-06  
   1.09312500000E+06; -4.55149E-07  ; 7.79156E-07  
   1.09481250000E+06;  1.53367E-07  ; 4.72693E-07  
   1.09650000000E+06; -1.7561E-06   ; 3.18332E-06  
   1.09818750000E+06;  5.61935E-08  ; 1.64679E-06  
   1.09987500000E+06; -6.07209E-07  ; 1.67119E-06  
   1.10156250000E+06; -3.14798E-07  ; 1.02853E-06  
   1.10325000000E+06; -2.18028E-07  ; 1.17575E-06  
   1.10493750000E+06; -7.55108E-07  ; 3.58664E-08  
   1.10662500000E+06; -1.2176E-06   ; 3.37134E-07  
   1.10831250000E+06;  2.27469E-07  ; 1.79238E-06  
   1.11000000000E+06;  2.06549E-07  ; 2.07702E-06  
   1.11168750000E+06; -4.4372E-07   ; 2.21367E-06  
   1.11337500000E+06;  4.75401E-07  ; 2.00544E-06  
   1.11506250000E+06;  1.12028E-07  ; 6.35853E-07  
   1.11675000000E+06; -3.13992E-07  ; 1.60999E-06  
   1.11843750000E+06; -3.89947E-07  ; 1.18925E-06  
   1.12012500000E+06;  2.61146E-07  ; 1.89941E-06  
   1.12181250000E+06; -1.3966E-06   ; 1.39462E-06  
   1.12350000000E+06; -8.40844E-08  ; 2.31061E-06  
   1.12518750000E+06;  1.40751E-06  ; 1.37207E-06  
   1.12687500000E+06; -1.93104E-07  ; 1.25577E-06  
   1.12856250000E+06; -1.71914E-06  ; 1.06764E-06  
   1.13025000000E+06; -1.07693E-06  ; 5.31886E-07  
   1.13193750000E+06;  1.60711E-07  ; 1.58102E-06  
   1.13362500000E+06; -8.23478E-07  ; 1.98994E-06  
   1.13531250000E+06;  2.96986E-07  ; 2.08734E-06  
   1.13700000000E+06;  2.9881E-07   ; 1.5138E-06   
   1.13868750000E+06;  1.78868E-07  ; 1.42142E-06  
   1.14037500000E+06;  3.59983E-07  ; 1.4705E-06   
   1.14206250000E+06;  3.04625E-07  ; 1.45032E-06  
   1.14375000000E+06; -1.30954E-06  ; 1.98164E-06  
   1.14543750000E+06;  9.41803E-08  ; 6.79704E-07  
   1.14712500000E+06; -1.04336E-06  ; 1.82271E-07  
   1.14881250000E+06;  2.8032E-07   ; 2.11817E-06  
   1.15050000000E+06;  1.75389E-06  ; 1.27202E-06  
   1.15218750000E+06; -9.68019E-07  ;-2.31069E-07  
   1.15387500000E+06;  2.1368E-07   ; 1.28392E-06  
   1.15556250000E+06; -5.71007E-07  ; 1.15172E-06  
   1.15725000000E+06;  9.25588E-07  ; 1.86669E-06  
   1.15893750000E+06; -9.98956E-07  ; 2.3451E-06   
   1.16062500000E+06;  6.46692E-07  ; 2.44462E-06  
   1.16231250000E+06; -5.33131E-07  ;-2.6054E-08   
   1.16400000000E+06; -9.52141E-07  ; 2.04015E-06  
   1.16568750000E+06;  1.55117E-08  ; 1.4109E-06   
   1.16737500000E+06;  2.7845E-07   ; 2.57709E-06  
   1.16906250000E+06; -9.6038E-08   ; 1.94882E-06  
   1.17075000000E+06; -1.37864E-06  ; 1.88605E-06  
   1.17243750000E+06;  5.7557E-08   ; 2.12712E-06  
   1.17412500000E+06; -9.67196E-07  ; 1.7714E-06   
   1.17581250000E+06;  7.60957E-08  ; 1.9744E-06   
   1.17750000000E+06;  2.01291E-07  ; 1.65813E-06  
   1.17918750000E+06; -8.571E-07    ; 1.67247E-06  
   1.18087500000E+06; -1.34647E-06  ; 2.79858E-06  
   1.18256250000E+06; -6.79331E-07  ; 5.72808E-07  
   1.18425000000E+06; -1.7821E-06   ; 2.01545E-06  
   1.18593750000E+06; -1.44056E-06  ; 2.48015E-06  
   1.18762500000E+06; -3.89732E-07  ; 3.20473E-06  
   1.18931250000E+06; -5.34495E-07  ; 1.51705E-06  
   1.19100000000E+06; -8.9984E-09   ; 6.68524E-07  
   1.19268750000E+06; -1.31909E-06  ; 2.62178E-06  
   1.19437500000E+06;  7.36329E-07  ; 2.27697E-06  
   1.19606250000E+06; -8.11482E-07  ; 2.0541E-06   
   1.19775000000E+06; -4.3607E-07   ; 3.05471E-07  
   1.19943750000E+06; -1.21777E-06  ; 2.81871E-06  
   1.20112500000E+06;  8.94851E-08  ; 1.29736E-06  
   1.20281250000E+06; -2.1134E-06   ; 1.05235E-06  
   1.20450000000E+06; -1.13735E-07  ; 1.36204E-06  
   1.20618750000E+06;  1.18625E-07  ; 1.31517E-06  
   1.20787500000E+06; -1.03455E-06  ; 6.53958E-07  
   1.20956250000E+06; -1.11838E-06  ; 1.78078E-06  
   1.21125000000E+06; -1.76462E-06  ; 2.55852E-06  
   1.21293750000E+06; -6.2125E-07   ; 2.26765E-06  
   1.21462500000E+06; -1.00529E-06  ; 1.95267E-06  
   1.21631250000E+06; -3.05841E-07  ; 2.44626E-06  
   1.21800000000E+06; -9.43012E-07  ; 1.55129E-06  
   1.21968750000E+06; -5.31577E-07  ; 1.29375E-06  
   1.22137500000E+06;  1.25499E-06  ; 1.12325E-06  
   1.22306250000E+06; -1.0797E-06   ; 2.28983E-06  
   1.22475000000E+06; -1.07172E-06  ; 2.21167E-06  
   1.22643750000E+06; -5.19723E-07  ; 2.25969E-06  
   1.22812500000E+06;  6.58592E-07  ; 1.38687E-06  
   1.22981250000E+06; -1.02732E-06  ; 2.7455E-06   
   1.23150000000E+06; -3.00464E-07  ; 3.7152E-06   
   1.23318750000E+06;  2.59801E-07  ; 1.31313E-06  
   1.23487500000E+06; -4.64412E-07  ; 1.98074E-06  
   1.23656250000E+06; -3.05215E-08  ; 3.55295E-06  
   1.23825000000E+06; -2.70572E-07  ; 2.37067E-06  
   1.23993750000E+06; -1.21108E-06  ; 2.68371E-06  
   1.24162500000E+06; -2.95431E-07  ; 2.23029E-06  
   1.24331250000E+06; -6.93631E-08  ; 1.40149E-06  
   1.24500000000E+06; -1.11076E-06  ; 2.68715E-06  
   1.24668750000E+06; -5.52851E-07  ; 2.2642E-06   
   1.24837500000E+06; -1.6162E-06   ; 9.48964E-07  
   1.25006250000E+06; -2.54722E-06  ; 1.81336E-06  
   1.25175000000E+06;  4.12713E-07  ; 7.35149E-07  
   1.25343750000E+06; -7.68028E-07  ; 2.9965E-06   
   1.25512500000E+06; -1.09804E-06  ; 2.46613E-06  
   1.25681250000E+06; -6.66453E-08  ; 3.02235E-06  
   1.25850000000E+06;  6.61772E-08  ; 2.00672E-06  
   1.26018750000E+06;  3.46778E-07  ; 1.87715E-06  
   1.26187500000E+06;  1.43299E-06  ; 1.81933E-06  
   1.26356250000E+06; -1.55346E-06  ; 2.0463E-06   
   1.26525000000E+06; -7.38915E-07  ; 1.54278E-06  
   1.26693750000E+06; -1.321E-06    ; 2.0322E-06   
   1.26862500000E+06; -1.25357E-06  ; 2.59125E-06  
   1.27031250000E+06;  1.48227E-07  ; 1.93599E-06  
   1.27200000000E+06;  1.74786E-07  ; 2.53793E-06  
   1.27368750000E+06; -6.87515E-07  ; 1.7995E-06   
   1.27537500000E+06;  3.2732E-07   ; 1.65707E-06  
   1.27706250000E+06; -4.32982E-07  ; 3.24411E-06  
   1.27875000000E+06;  1.75029E-06  ; 1.92161E-06  
   1.28043750000E+06; -1.2422E-06   ; 2.14312E-06  
   1.28212500000E+06; -1.03644E-06  ; 2.59379E-06  
   1.28381250000E+06; -1.8944E-06   ; 1.37487E-06  
   1.28550000000E+06;  7.13294E-07  ; 1.24589E-06  
   1.28718750000E+06; -5.60571E-07  ; 2.59544E-06  
   1.28887500000E+06; -3.55248E-08  ; 5.77942E-07  
   1.29056250000E+06; -1.41923E-06  ; 2.18669E-06  
   1.29225000000E+06;  2.04831E-07  ; 2.45659E-06  
   1.29393750000E+06;  1.53423E-07  ; 1.85428E-06  
   1.29562500000E+06; -3.63167E-07  ; 1.56155E-06  
   1.29731250000E+06; -1.14316E-07  ; 1.27755E-06  
   1.29900000000E+06; -4.32161E-07  ; 3.03563E-06  
   1.30068750000E+06; -3.62206E-07  ; 2.25783E-06  
   1.30237500000E+06; -5.43357E-07  ; 7.66544E-07  
   1.30406250000E+06; -5.83158E-07  ; 7.54169E-07  
   1.30575000000E+06; -4.25198E-07  ; 2.05921E-06  
   1.30743750000E+06; -7.63063E-07  ; 1.65147E-06  
   1.30912500000E+06;  5.91795E-07  ; 2.36979E-06  
   1.31081250000E+06;  1.10762E-07  ; 2.78537E-06  
   1.31250000000E+06; -1.33269E-07  ; 3.23825E-06  
   1.31418750000E+06; -9.96949E-07  ; 2.66211E-06  
   1.31587500000E+06; -9.55846E-08  ; 2.628E-06    
   1.31756250000E+06; -7.15659E-07  ; 2.71993E-06  
   1.31925000000E+06; -2.26727E-07  ; 1.61258E-06  
   1.32093750000E+06; -7.67408E-07  ; 2.13954E-06  
   1.32262500000E+06; -1.55044E-06  ; 2.62166E-06  
   1.32431250000E+06; -1.04736E-06  ; 3.22231E-06  
   1.32600000000E+06;  5.45826E-07  ; 8.5895E-07   
   1.32768750000E+06; -1.17562E-06  ; 1.7892E-06   
   1.32937500000E+06; -6.36832E-07  ; 3.62908E-06  
   1.33106250000E+06; -6.11815E-07  ; 7.38337E-07  
   1.33275000000E+06; -2.07001E-08  ; 3.22793E-06  
   1.33443750000E+06;  7.57387E-08  ; 8.06401E-07  
   1.33612500000E+06; -2.7113E-07   ; 1.84039E-06  
   1.33781250000E+06;  9.32704E-07  ; 2.51976E-06  
   1.33950000000E+06; -1.06229E-06  ; 3.2622E-06   
   1.34118750000E+06; -1.22208E-06  ; 2.89583E-06  
   1.34287500000E+06; -1.26415E-06  ; 1.49E-06     
   1.34456250000E+06; -8.23563E-07  ; 2.53088E-06  
   1.34625000000E+06; -2.43336E-07  ; 3.95457E-06  
   1.34793750000E+06; -5.12101E-07  ; 2.77045E-06  
   1.34962500000E+06; -1.13198E-06  ; 2.19589E-06  
   1.35131250000E+06; -3.96251E-07  ; 3.14784E-06  
   1.35300000000E+06; -7.59408E-07  ; 1.4293E-06   
   1.35468750000E+06; -2.18548E-06  ; 2.77152E-06  
   1.35637500000E+06;  6.58991E-07  ; 2.15211E-06  
   1.35806250000E+06;  3.59858E-07  ; 2.43205E-06  
   1.35975000000E+06;  3.06423E-07  ; 2.47359E-06  
   1.36143750000E+06;  6.38196E-08  ; 3.22772E-06  
   1.36312500000E+06; -2.00669E-06  ; 2.31951E-06  
   1.36481250000E+06;  1.02599E-06  ; 1.11442E-06  
   1.36650000000E+06;  4.75897E-08  ; 3.41091E-06  
   1.36818750000E+06; -5.22797E-07  ; 2.32351E-06  
   1.36987500000E+06; -2.08255E-06  ; 2.505E-06    
   1.37156250000E+06;  8.62453E-07  ; 2.6552E-06   
   1.37325000000E+06; -8.96034E-08  ; 2.96536E-06  
   1.37493750000E+06; -3.902E-07    ; 3.73292E-06  
   1.37662500000E+06;  9.24989E-07  ; 1.70173E-06  
   1.37831250000E+06; -1.16627E-07  ; 1.76223E-06  
   1.38000000000E+06; -1.31978E-06  ; 2.18025E-06  
   1.38168750000E+06; -2.52742E-06  ; 2.55463E-06  
   1.38337500000E+06; -3.70448E-07  ; 1.29078E-06  
   1.38506250000E+06; -3.09749E-07  ; 2.42062E-06  
   1.38675000000E+06; -1.22721E-06  ; 1.85084E-06  
   1.38843750000E+06; -1.5287E-06   ; 1.93123E-06  
   1.39012500000E+06; -2.91787E-07  ; 3.35336E-06  
   1.39181250000E+06;  8.44901E-07  ; 1.37083E-06  
   1.39350000000E+06;  1.17665E-07  ; 2.1795E-06   
   1.39518750000E+06;  6.54866E-07  ; 3.32144E-06  
   1.39687500000E+06; -1.20359E-06  ; 1.84839E-06  
   1.39856250000E+06; -8.41531E-07  ; 2.10013E-06  
   1.40025000000E+06;  2.77125E-07  ; 1.12094E-06  
   1.40193750000E+06; -1.66873E-06  ; 1.94147E-06  
   1.40362500000E+06; -2.217E-07    ; 2.20272E-06  
   1.40531250000E+06; -3.30137E-07  ; 2.52055E-06  
   1.40700000000E+06;  1.50795E-07  ; 1.36005E-06  
   1.40868750000E+06; -3.22581E-07  ; 1.67572E-06  
   1.41037500000E+06;  4.0663E-07   ; 1.96562E-06  
   1.41206250000E+06;  4.95466E-08  ; 3.98659E-06  
   1.41375000000E+06; -1.00544E-06  ; 2.38926E-06  
   1.41543750000E+06; -3.21661E-07  ; 3.13197E-06  
   1.41712500000E+06; -3.16917E-07  ; 1.67009E-06  
   1.41881250000E+06; -7.43955E-07  ; 2.57702E-06  
   1.42050000000E+06;  1.07768E-06  ; 1.96487E-06  
   1.42218750000E+06; -1.19181E-06  ; 2.28939E-06  
   1.42387500000E+06; -3.10255E-07  ; 9.36706E-07  
   1.42556250000E+06; -1.33811E-07  ; 2.49024E-06  
   1.42725000000E+06;  2.97997E-07  ; 1.42614E-06  
   1.42893750000E+06; -1.23666E-06  ; 3.373E-06    
   1.43062500000E+06; -6.4787E-07   ; 1.56652E-06  
   1.43231250000E+06; -2.20737E-07  ; 3.01878E-06  
   1.43400000000E+06; -5.57643E-07  ; 1.87397E-07  
   1.43568750000E+06; -1.06806E-06  ; 1.01913E-06  
   1.43737500000E+06;  7.41708E-07  ; 1.62815E-06  
   1.43906250000E+06;  4.81805E-07  ; 4.25989E-06  
   1.44075000000E+06;  3.33468E-07  ; 4.14793E-06  
   1.44243750000E+06; -4.2761E-08   ; 1.06833E-06  
   1.44412500000E+06; -2.90731E-07  ; 1.102E-06    
   1.44581250000E+06;  2.01899E-06  ; 6.68447E-07  
   1.44750000000E+06; -4.6126E-07   ; 3.24636E-06  
   1.44918750000E+06;  1.90234E-06  ; 1.89331E-06  
   1.45087500000E+06; -1.8484E-07   ; 1.64376E-06  
   1.45256250000E+06; -5.10832E-07  ; 2.29362E-06  
   1.45425000000E+06; -1.03822E-06  ; 2.02471E-06  
   1.45593750000E+06; -4.397E-07    ; 2.15385E-06  
   1.45762500000E+06; -5.72417E-07  ; 3.14361E-06  
   1.45931250000E+06; -4.22915E-07  ; 2.43445E-06  
   1.46100000000E+06; -8.40925E-07  ; 2.196E-06    
   1.46268750000E+06;  2.84865E-09  ; 2.06534E-06  
   1.46437500000E+06; -9.12236E-08  ; 2.44055E-06  
   1.46606250000E+06; -4.24982E-07  ; 3.63901E-06  
   1.46775000000E+06;  7.04179E-08  ; 3.4828E-06   
   1.46943750000E+06; -1.30169E-06  ; 3.56114E-06  
   1.47112500000E+06; -2.00517E-06  ; 2.47486E-06  
   1.47281250000E+06;  9.33083E-07  ; 2.31954E-06  
   1.47450000000E+06;  4.42466E-07  ; 2.91886E-06  
   1.47618750000E+06; -5.71719E-07  ; 3.51692E-06  
   1.47787500000E+06;  4.85773E-07  ; 2.33733E-06  
   1.47956250000E+06; -3.52532E-07  ; 2.33706E-06  
   1.48125000000E+06; -6.70967E-07  ; 3.45663E-06  
   1.48293750000E+06;  1.12181E-06  ; 3.63544E-06  
   1.48462500000E+06; -1.11208E-06  ; 2.94581E-06  
   1.48631250000E+06;  3.26074E-07  ; 2.01872E-06  
   1.48800000000E+06; -4.63238E-07  ; 2.06274E-06  
   1.48968750000E+06; -1.9764E-06   ; 2.75412E-06  
   1.49137500000E+06; -8.89216E-07  ; 3.17531E-06  
   1.49306250000E+06; -3.62661E-07  ; 1.41475E-06  
   1.49475000000E+06;  4.4844E-07   ; 2.48651E-06  
   1.49643750000E+06;  1.37218E-06  ; 1.83052E-06  
   1.49812500000E+06;  5.80561E-07  ; 2.30238E-06  
   1.49981250000E+06; -1.10056E-06  ; 3.56858E-06  
   1.50150000000E+06; -1.51834E-06  ; 3.35035E-06  
   1.50318750000E+06;  2.84925E-07  ; 2.63139E-06  
   1.50487500000E+06; -2.18267E-07  ; 2.56866E-06  
   1.50656250000E+06;  1.24833E-06  ; 2.60893E-06  
   1.50825000000E+06; -1.70491E-06  ; 3.02933E-06  
   1.50993750000E+06; -1.09419E-06  ; 3.96794E-06  
   1.51162500000E+06; -3.26182E-07  ;-1.4836E-07   
   1.51331250000E+06; -8.4503E-07   ; 3.29474E-06  
   1.51500000000E+06;  3.00983E-07  ; 3.55791E-06  
   1.51668750000E+06;  1.16464E-07  ; 3.93763E-06  
   1.51837500000E+06; -1.5393E-06   ; 3.47009E-06  
   1.52006250000E+06; -2.84814E-07  ; 2.91382E-06  
   1.52175000000E+06; -7.39635E-07  ; 2.54374E-06  
   1.52343750000E+06; -1.53765E-06  ; 1.71378E-06  
   1.52512500000E+06;  7.04768E-07  ; 2.94557E-06  
   1.52681250000E+06;  4.02221E-07  ; 4.09736E-06  
   1.52850000000E+06;  1.22695E-07  ; 4.19819E-06  
   1.53018750000E+06; -1.23735E-06  ; 3.92205E-06  
   1.53187500000E+06; -1.0761E-06   ; 2.54274E-06  
   1.53356250000E+06;  2.27634E-07  ; 4.12121E-06  
   1.53525000000E+06; -1.18936E-06  ; 2.65281E-06  
   1.53693750000E+06; -4.09968E-07  ; 2.77084E-06  
   1.53862500000E+06;  1.26756E-06  ; 1.78149E-06  
   1.54031250000E+06;  8.90561E-07  ; 1.77719E-06  
   1.54200000000E+06;  6.37645E-07  ; 2.97881E-06  
   1.54368750000E+06; -1.42391E-06  ; 2.06206E-06  
   1.54537500000E+06;  6.76358E-07  ; 9.36522E-07  
   1.54706250000E+06; -3.22225E-06  ; 2.16989E-06  
   1.54875000000E+06;  8.02565E-08  ; 1.84227E-06  
   1.55043750000E+06; -1.70374E-07  ; 2.06778E-06  
   1.55212500000E+06;  1.07003E-06  ; 2.46453E-06  
   1.55381250000E+06; -1.78141E-06  ; 8.68307E-07  
   1.55550000000E+06;  3.27042E-07  ; 4.51902E-06  
   1.55718750000E+06; -9.83383E-07  ; 2.40018E-06  
   1.55887500000E+06; -4.23945E-07  ; 2.41117E-06  
   1.56056250000E+06; -7.52033E-07  ; 1.71187E-06  
   1.56225000000E+06; -1.78645E-06  ; 2.40422E-06  
   1.56393750000E+06; -5.60235E-07  ; 3.98702E-06  
   1.56562500000E+06; -1.29524E-06  ; 6.01923E-07  
   1.56731250000E+06; -2.1468E-06   ; 1.84656E-06  
   1.56900000000E+06; -1.8725E-06   ; 2.96659E-06  
   1.57068750000E+06;  2.72963E-08  ; 2.24345E-06  
   1.57237500000E+06; -1.02523E-06  ; 4.05979E-06  
   1.57406250000E+06; -9.50123E-07  ; 3.30812E-06  
   1.57575000000E+06; -7.60917E-07  ; 2.57975E-06  
   1.57743750000E+06;  1.98695E-06  ; 2.4564E-06   
   1.57912500000E+06;  2.13865E-07  ; 1.61764E-06  
   1.58081250000E+06; -3.81787E-07  ; 3.11928E-06  
   1.58250000000E+06; -4.41086E-07  ; 7.89413E-08  
   1.58418750000E+06; -3.27814E-07  ; 2.3132E-06   
   1.58587500000E+06; -2.79118E-06  ; 3.75973E-06  
   1.58756250000E+06; -1.88352E-06  ; 2.30846E-06  
   1.58925000000E+06;  2.03704E-07  ; 1.79248E-06  
   1.59093750000E+06;  3.81921E-07  ; 1.6603E-06   
   1.59262500000E+06; -1.15444E-06  ; 1.9229E-06   
   1.59431250000E+06;  2.96435E-07  ; 5.56387E-06  
   1.59600000000E+06; -6.17879E-07  ; 3.3834E-06   
   1.59768750000E+06; -2.60255E-07  ; 3.33256E-06  
   1.59937500000E+06; -1.0373E-06   ; 3.82865E-06  
   1.60106250000E+06; -1.03984E-06  ; 3.49386E-06  
   1.60275000000E+06; -8.45945E-07  ; 2.393E-06    
   1.60443750000E+06; -1.07019E-06  ; 2.38714E-06  
   1.60612500000E+06; -1.84811E-06  ; 3.27376E-06  
   1.60781250000E+06;  3.4456E-07   ; 3.59105E-06  
   1.60950000000E+06; -1.02837E-06  ; 4.12697E-06  
   1.61118750000E+06; -2.19256E-06  ; 1.02203E-06  
   1.61287500000E+06;  1.03595E-06  ; 1.49677E-06  
   1.61456250000E+06; -4.84684E-07  ; 1.46341E-06  
   1.61625000000E+06; -1.56739E-06  ; 2.77906E-06  
   1.61793750000E+06; -4.37879E-07  ; 1.21887E-06  
   1.61962500000E+06; -1.36005E-06  ; 1.48801E-06  
   1.62131250000E+06;  2.9427E-07   ; 2.22925E-06  
   1.62300000000E+06; -1.40172E-06  ; 3.43923E-06  
   1.62468750000E+06; -9.70984E-07  ; 1.64703E-06  
   1.62637500000E+06; -7.61545E-07  ; 3.39319E-06  
   1.62806250000E+06; -9.14514E-07  ; 3.35092E-06  
   1.62975000000E+06; -6.27772E-07  ; 2.81361E-06  
   1.63143750000E+06; -7.66848E-07  ; 1.73311E-06  
   1.63312500000E+06; -5.37199E-07  ; 2.51366E-06  
   1.63481250000E+06; -2.50606E-06  ; 2.55759E-06  
   1.63650000000E+06; -3.39576E-07  ; 5.17762E-07  
   1.63818750000E+06; -3.00676E-07  ; 1.29418E-06  
   1.63987500000E+06; -3.9992E-07   ; 2.00626E-06  
   1.64156250000E+06; -1.40617E-06  ; 2.86352E-06  
   1.64325000000E+06; -3.24165E-07  ; 2.24753E-06  
   1.64493750000E+06;  4.13728E-07  ; 1.78112E-06  
   1.64662500000E+06; -2.31548E-06  ; 3.95199E-06  
   1.64831250000E+06;  4.39397E-07  ; 4.16709E-06  
   1.65000000000E+06; -6.17078E-07  ; 1.62219E-06  
   1.65168750000E+06;  1.4188E-06   ; 2.87589E-06  
   1.65337500000E+06; -2.8005E-07   ; 3.72026E-06  
   1.65506250000E+06;  3.37288E-07  ; 3.47526E-06  
   1.65675000000E+06;  6.38163E-07  ; 2.18251E-06  
   1.65843750000E+06; -5.32883E-07  ; 3.54133E-06  
   1.66012500000E+06; -9.10603E-07  ; 3.50314E-06  
   1.66181250000E+06; -1.98998E-06  ; 3.04975E-06  
   1.66350000000E+06; -7.98891E-07  ; 1.47652E-06  
   1.66518750000E+06; -2.14736E-07  ; 3.41272E-06  
   1.66687500000E+06; -5.38776E-07  ; 2.06308E-06  
   1.66856250000E+06; -2.45133E-07  ; 3.72933E-06  
   1.67025000000E+06; -6.86867E-07  ; 2.93696E-06  
   1.67193750000E+06; -1.41897E-06  ; 3.30998E-06  
   1.67362500000E+06; -3.16055E-07  ; 1.25645E-06  
   1.67531250000E+06; -1.69428E-06  ; 3.31272E-06  
   1.67700000000E+06; -1.89772E-07  ; 1.35371E-06  
   1.67868750000E+06; -4.6756E-07   ; 3.34279E-06  
   1.68037500000E+06; -1.56321E-07  ; 3.85398E-07  
   1.68206250000E+06; -4.21916E-07  ; 2.63651E-06  
   1.68375000000E+06;  1.75536E-08  ; 4.07613E-06  
   1.68543750000E+06; -6.05541E-07  ; 2.84157E-06  
   1.68712500000E+06; -9.97724E-07  ; 2.73266E-06  
   1.68881250000E+06; -4.61499E-07  ; 1.58733E-06  
   1.69050000000E+06; -7.05902E-08  ; 1.7476E-06   
   1.69218750000E+06;  7.36355E-07  ; 3.68902E-06  
   1.69387500000E+06; -2.69273E-07  ; 1.33883E-06  
   1.69556250000E+06;  1.42088E-07  ; 2.25097E-06  
   1.69725000000E+06;  3.91401E-07  ; 1.99832E-06  
   1.69893750000E+06;  1.23469E-06  ; 1.99931E-06  
   1.70062500000E+06; -1.97775E-06  ; 3.35479E-06  
   1.70231250000E+06; -7.72183E-07  ; 3.09558E-06  
   1.70400000000E+06; -1.92755E-06  ; 2.22161E-06  
   1.70568750000E+06; -9.73468E-07  ; 3.80647E-06  
   1.70737500000E+06; -5.43037E-07  ; 3.4304E-06   
   1.70906250000E+06; -7.56159E-07  ; 2.67106E-06  
   1.71075000000E+06; -1.0151E-06   ; 3.20215E-06  
   1.71243750000E+06;  5.15946E-07  ; 2.49825E-06  
   1.71412500000E+06;  3.25345E-07  ; 3.30553E-06  
   1.71581250000E+06; -1.11908E-06  ; 9.10363E-07  
   1.71750000000E+06;  4.38864E-07  ; 4.7669E-06   
   1.71918750000E+06; -1.96242E-07  ; 4.66785E-06  
   1.72087500000E+06; -1.91384E-07  ; 2.3501E-06   
   1.72256250000E+06; -7.10778E-07  ; 2.92894E-06  
   1.72425000000E+06;  5.85247E-07  ; 1.5749E-06   
   1.72593750000E+06; -6.84253E-07  ; 2.82039E-06  
   1.72762500000E+06; -5.87548E-08  ; 2.30734E-06  
   1.72931250000E+06;  4.3427E-07   ; 3.06061E-06  
   1.73100000000E+06; -7.10381E-07  ; 2.7961E-06   
   1.73268750000E+06; -1.2298E-06   ; 2.88529E-06  
   1.73437500000E+06; -1.9187E-06   ; 3.68249E-06  
   1.73606250000E+06; -2.50585E-07  ; 2.4354E-06   
   1.73775000000E+06; -1.8718E-06   ; 4.4318E-06   
   1.73943750000E+06;  6.35477E-07  ; 2.98012E-06  
   1.74112500000E+06; -1.39068E-06  ; 2.13864E-06  
   1.74281250000E+06; -2.56486E-06  ; 1.93744E-06  
   1.74450000000E+06; -7.93345E-07  ; 2.61011E-06  
   1.74618750000E+06;  5.53569E-07  ; 2.48598E-06  
   1.74787500000E+06; -1.19892E-06  ; 1.0288E-06   
   1.74956250000E+06; -4.42219E-09  ; 3.2154E-06   
   1.75125000000E+06; -4.79397E-07  ; 3.59964E-06  
   1.75293750000E+06; -9.45232E-07  ; 1.97518E-06  
   1.75462500000E+06; -3.10907E-06  ; 1.98406E-06  
   1.75631250000E+06; -1.554E-06    ; 4.10958E-06  
   1.75800000000E+06; -2.35038E-07  ; 2.16545E-06  
   1.75968750000E+06; -6.90682E-07  ; 2.86377E-06  
   1.76137500000E+06; -6.5044E-07   ; 3.30669E-06  
   1.76306250000E+06; -1.27843E-06  ; 2.44819E-06  
   1.76475000000E+06; -1.59269E-06  ; 2.75518E-06  
   1.76643750000E+06;  4.87413E-07  ; 2.15134E-06  
   1.76812500000E+06;  4.31148E-07  ; 3.57078E-06  
   1.76981250000E+06;  1.1576E-06   ; 3.01232E-06  
   1.77150000000E+06; -4.75816E-07  ; 2.00375E-06  
   1.77318750000E+06;  5.79638E-07  ; 2.79991E-06  
   1.77487500000E+06; -9.74705E-07  ; 1.77766E-06  
   1.77656250000E+06; -1.9844E-06   ; 3.51521E-06  
   1.77825000000E+06; -2.80212E-07  ; 2.41096E-06  
   1.77993750000E+06; -6.81848E-07  ; 2.40527E-06  
   1.78162500000E+06; -1.41717E-06  ; 2.64481E-06  
   1.78331250000E+06;  1.57668E-07  ; 2.64957E-06  
   1.78500000000E+06; -5.20705E-07  ; 2.98343E-06  
   1.78668750000E+06; -1.61712E-08  ; 2.89971E-06  
   1.78837500000E+06; -1.62898E-06  ; 1.82499E-06  
   1.79006250000E+06; -3.00425E-07  ; 2.31895E-06  
   1.79175000000E+06;  1.64959E-06  ; 2.53319E-06  
   1.79343750000E+06; -5.14259E-07  ; 2.64874E-06  
   1.79512500000E+06; -2.27977E-06  ; 2.22515E-06  
   1.79681250000E+06; -2.92554E-08  ; 1.87371E-06  
   1.79850000000E+06; -9.06794E-07  ; 3.70299E-06  
   1.80018750000E+06; -4.02253E-07  ; 3.39683E-06  
   1.80187500000E+06; -2.90141E-07  ; 3.50364E-06  
   1.80356250000E+06;  2.63371E-07  ; 2.67808E-06  
   1.80525000000E+06; -1.11024E-06  ; 2.04244E-06  
   1.80693750000E+06; -1.16376E-06  ; 2.13068E-06  
   1.80862500000E+06; -1.0709E-06   ; 2.89517E-06  
   1.81031250000E+06; -1.04216E-06  ; 1.67087E-06  
   1.81200000000E+06; -2.71627E-07  ; 2.34225E-06  
   1.81368750000E+06;  4.72728E-07  ; 4.18867E-06  
   1.81537500000E+06;  1.22175E-06  ; 4.0462E-06   
   1.81706250000E+06; -1.25876E-06  ; 3.12107E-06  
   1.81875000000E+06; -2.56106E-06  ; 3.1272E-06   
   1.82043750000E+06; -1.29579E-06  ; 1.04199E-06  
   1.82212500000E+06; -1.60261E-06  ; 2.77102E-06  
   1.82381250000E+06; -2.25461E-06  ; 2.47656E-06  
   1.82550000000E+06; -8.83625E-07  ; 1.85362E-06  
   1.82718750000E+06;  1.28988E-07  ; 1.55422E-06  
   1.82887500000E+06;  4.62904E-07  ; 3.32556E-06  
   1.83056250000E+06; -1.89762E-07  ; 3.35331E-06  
   1.83225000000E+06; -8.49357E-07  ; 3.32351E-06  
   1.83393750000E+06; -3.38349E-07  ; 3.87225E-06  
   1.83562500000E+06; -1.31903E-06  ; 2.78048E-06  
   1.83731250000E+06; -5.7822E-07   ; 2.85695E-06  
   1.83900000000E+06; -6.71352E-07  ; 1.3578E-06   
   1.84068750000E+06; -1.87525E-06  ; 3.7443E-06   
   1.84237500000E+06; -2.69504E-06  ; 2.89203E-06  
   1.84406250000E+06; -3.42136E-07  ; 2.03351E-06  
   1.84575000000E+06; -1.14965E-06  ; 2.05902E-06  
   1.84743750000E+06;  7.18268E-08  ; 4.53897E-06  
   1.84912500000E+06;  7.78717E-07  ; 4.0898E-06   
   1.85081250000E+06; -5.48221E-07  ; 3.56372E-06  
   1.85250000000E+06; -9.87059E-07  ; 3.97729E-06  
   1.85418750000E+06;  1.19752E-07  ; 3.12074E-06  
   1.85587500000E+06; -8.53566E-07  ; 3.70029E-06  
   1.85756250000E+06; -4.48914E-07  ; 4.01275E-06  
   1.85925000000E+06;  6.23949E-07  ; 3.16477E-06  
   1.86093750000E+06; -1.39934E-06  ; 3.82427E-06  
   1.86262500000E+06; -2.27837E-07  ; 2.68812E-06  
   1.86431250000E+06; -7.00704E-07  ; 3.22884E-06  
   1.86600000000E+06; -8.64409E-07  ; 3.95202E-06  
   1.86768750000E+06; -1.48406E-06  ; 3.11016E-06  
   1.86937500000E+06; -3.51406E-07  ; 3.0239E-06   
   1.87106250000E+06; -1.44211E-06  ; 3.2501E-06   
   1.87275000000E+06; -1.24157E-06  ; 4.48299E-06  
   1.87443750000E+06; -1.84417E-06  ; 3.3063E-06   
   1.87612500000E+06; -5.07428E-07  ; 2.95353E-06  
   1.87781250000E+06; -8.03239E-07  ; 5.68558E-06  
   1.87950000000E+06; -6.80766E-07  ; 3.21847E-06  
   1.88118750000E+06;  6.1913E-07   ; 3.24985E-06  
   1.88287500000E+06; -8.52636E-07  ; 2.28489E-06  
   1.88456250000E+06; -2.24482E-06  ; 2.36352E-06  
   1.88625000000E+06; -1.50771E-07  ; 1.98228E-06  
   1.88793750000E+06;  9.31009E-07  ; 1.81001E-06  
   1.88962500000E+06; -9.89924E-07  ; 2.68032E-06  
   1.89131250000E+06; -1.46955E-06  ; 2.6614E-06   
   1.89300000000E+06; -1.3001E-06   ; 3.5319E-06   
   1.89468750000E+06; -6.85196E-07  ; 4.45394E-06  
   1.89637500000E+06; -4.05931E-07  ; 2.7484E-06   
   1.89806250000E+06; -7.9312E-07   ; 2.48782E-06  
   1.89975000000E+06; -3.86149E-07  ; 2.33631E-06  
   1.90143750000E+06; -1.65898E-06  ; 3.24584E-06  
   1.90312500000E+06; -3.59914E-07  ; 2.48299E-06  
   1.90481250000E+06;  9.69063E-08  ; 2.81767E-06  
   1.90650000000E+06; -1.48061E-06  ; 4.21168E-06  
   1.90818750000E+06;  6.50601E-07  ; 2.46918E-06  
   1.90987500000E+06; -1.7487E-06   ; 9.84672E-07  
   1.91156250000E+06; -9.49008E-07  ; 2.31377E-06  
   1.91325000000E+06; -2.39638E-07  ; 1.87017E-06  
   1.91493750000E+06; -9.81202E-07  ; 3.42811E-06  
   1.91662500000E+06; -1.00302E-06  ; 3.01778E-06  
   1.91831250000E+06;  5.11494E-07  ; 3.51153E-06  
   1.92000000000E+06; -5.7627E-07   ; 4.02248E-06  
   1.92168750000E+06; -3.45541E-07  ; 2.8405E-06   
   1.92337500000E+06; -4.787E-07    ; 3.88603E-06  
   1.92506250000E+06;  8.47967E-09  ; 2.83154E-06  
   1.92675000000E+06; -1.29384E-06  ; 2.52453E-06  
   1.92843750000E+06; -8.9309E-08   ; 2.6058E-06   
   1.93012500000E+06; -1.02742E-06  ; 3.47289E-07  
   1.93181250000E+06;  9.86695E-08  ; 2.82413E-06  
   1.93350000000E+06; -2.08381E-06  ; 3.0058E-06   
   1.93518750000E+06; -1.54584E-06  ; 3.68737E-06  
   1.93687500000E+06;  8.93737E-08  ; 3.29996E-06  
   1.93856250000E+06; -1.70008E-06  ; 2.61075E-06  
   1.94025000000E+06; -1.93439E-06  ; 3.54012E-06  
   1.94193750000E+06; -1.29106E-07  ; 3.75212E-06  
   1.94362500000E+06; -1.99815E-06  ; 3.50112E-06  
   1.94531250000E+06;  1.85508E-07  ; 3.18508E-06  
   1.94700000000E+06;  3.42066E-07  ; 3.59303E-06  
   1.94868750000E+06;  1.05519E-06  ; 2.91756E-06  
   1.95037500000E+06;  9.38679E-07  ; 3.42151E-06  
   1.95206250000E+06; -1.56927E-06  ; 2.83424E-06  
   1.95375000000E+06;  2.78239E-07  ; 3.38456E-06  
   1.95543750000E+06;  7.68592E-07  ; 3.44925E-06  
   1.95712500000E+06; -7.11728E-07  ; 3.53989E-06  
   1.95881250000E+06; -5.77815E-07  ; 1.83451E-06  
   1.96050000000E+06; -2.2384E-06   ; 2.67773E-06  
   1.96218750000E+06; -1.12339E-06  ; 3.02468E-06  
   1.96387500000E+06; -1.00196E-06  ; 3.11244E-06  
   1.96556250000E+06; -1.9831E-06   ; 1.54704E-06  
   1.96725000000E+06; -2.96534E-06  ; 3.07318E-06  
   1.96893750000E+06;  1.63913E-06  ; 2.54829E-06  
   1.97062500000E+06;  5.60205E-07  ; 2.20767E-06  
   1.97231250000E+06; -7.5241E-07   ; 7.41957E-07  
   1.97400000000E+06; -8.01441E-07  ; 3.38528E-06  
   1.97568750000E+06; -1.58992E-06  ; 1.3664E-06   
   1.97737500000E+06; -4.88735E-07  ; 1.5303E-06   
   1.97906250000E+06; -4.45175E-07  ; 2.76889E-06  
   1.98075000000E+06; -4.04885E-07  ; 3.52895E-06  
   1.98243750000E+06; -1.08887E-06  ; 3.87772E-06  
   1.98412500000E+06;  1.03039E-06  ; 4.05619E-06  
   1.98581250000E+06; -1.89087E-07  ; 1.82131E-06  
   1.98750000000E+06; -2.41071E-06  ; 4.61745E-06  
   1.98918750000E+06; -4.73883E-07  ; 1.57997E-06  
   1.99087500000E+06; -1.29134E-06  ; 3.00917E-06  
   1.99256250000E+06; -8.42988E-07  ; 2.93498E-06  
   1.99425000000E+06; -8.93673E-08  ; 2.9087E-06   
   1.99593750000E+06; -1.33121E-06  ; 4.1746E-06   
   1.99762500000E+06; -9.13085E-08  ; 3.78238E-06  
   1.99931250000E+06; -4.8694E-07   ; 2.73916E-06  
   2.00100000000E+06;  4.11782E-07  ; 4.64642E-06  
   2.00268750000E+06; -5.00311E-07  ; 2.68807E-06  
   2.00437500000E+06; -2.37972E-06  ; 3.40192E-06  
   2.00606250000E+06;  1.94986E-07  ; 2.02178E-06  
   2.00775000000E+06; -7.48497E-07  ; 3.26194E-06  
   2.00943750000E+06; -3.73738E-07  ; 2.42157E-06  
   2.01112500000E+06; -8.80909E-07  ; 2.30589E-06  
   2.01281250000E+06; -4.23605E-07  ; 3.8427E-06   
   2.01450000000E+06;  7.59547E-07  ; 3.31427E-06  
   2.01618750000E+06;  2.73478E-07  ; 2.34522E-06  
   2.01787500000E+06; -2.71011E-06  ; 6.70324E-07  
   2.01956250000E+06;  3.07099E-07  ; 1.89014E-06  
   2.02125000000E+06;  1.25483E-06  ; 3.18952E-06  
   2.02293750000E+06; -1.82639E-06  ; 2.76586E-06  
   2.02462500000E+06; -1.0244E-06   ; 2.78597E-06  
   2.02631250000E+06;  6.9012E-07   ; 3.1132E-06   
   2.02800000000E+06;  6.76723E-07  ; 2.98321E-06  
   2.02968750000E+06; -3.65215E-07  ; 3.4777E-06   
   2.03137500000E+06; -4.998E-07    ; 2.93668E-06  
   2.03306250000E+06; -1.98749E-07  ; 4.52768E-06  
   2.03475000000E+06; -5.24885E-07  ; 2.07627E-06  
   2.03643750000E+06; -1.1385E-06   ; 2.45803E-06  
   2.03812500000E+06; -4.12587E-07  ; 1.71032E-06  
   2.03981250000E+06; -1.65691E-06  ; 3.29036E-06  
   2.04150000000E+06; -1.94513E-06  ; 1.84265E-06  
   2.04318750000E+06;  2.63741E-08  ; 2.77225E-06  
   2.04487500000E+06; -9.12527E-07  ; 3.40665E-06  
   2.04656250000E+06; -4.30876E-07  ; 3.44085E-06  
   2.04825000000E+06; -3.78141E-07  ; 3.13054E-06  
   2.04993750000E+06; -1.24153E-07  ; 2.25516E-06  
   2.05162500000E+06; -1.81612E-06  ; 2.87311E-06  
   2.05331250000E+06; -1.3232E-06   ; 5.94332E-06  
   2.05500000000E+06; -5.21289E-07  ; 3.07293E-06  
   2.05668750000E+06; -5.41187E-07  ; 4.55177E-06  
   2.05837500000E+06; -1.10439E-06  ; 2.58687E-06  
   2.06006250000E+06; -2.39569E-06  ; 2.16576E-06  
   2.06175000000E+06; -1.62871E-06  ; 2.28553E-06  
   2.06343750000E+06; -1.13068E-06  ; 3.59796E-06  
   2.06512500000E+06; -1.545E-06    ; 4.53928E-06  
   2.06681250000E+06; -7.66233E-07  ; 3.84104E-06  
   2.06850000000E+06; -2.58094E-07  ; 4.60334E-06  
   2.07018750000E+06;  9.64533E-07  ; 3.213E-06    
   2.07187500000E+06; -1.34146E-06  ; 2.49398E-06  
   2.07356250000E+06; -2.10276E-06  ; 2.62768E-06  
   2.07525000000E+06;  3.32735E-07  ; 2.6329E-06   
   2.07693750000E+06; -1.73309E-06  ; 2.59447E-06  
   2.07862500000E+06; -3.34562E-07  ; 4.0396E-06   
   2.08031250000E+06; -6.07475E-07  ; 4.01768E-06  
   2.08200000000E+06; -1.07195E-06  ; 2.73639E-06  
   2.08368750000E+06; -2.60786E-07  ; 2.19801E-06  
   2.08537500000E+06; -3.94466E-07  ; 3.95414E-06  
   2.08706250000E+06;  4.07314E-07  ; 3.55347E-06  
   2.08875000000E+06; -9.27436E-07  ; 4.3298E-06   
   2.09043750000E+06; -5.39995E-07  ; 5.19837E-06  
   2.09212500000E+06; -8.44097E-07  ; 2.9231E-06   
   2.09381250000E+06; -3.70939E-07  ; 3.12679E-06  
   2.09550000000E+06; -9.02955E-07  ; 2.97595E-06  
   2.09718750000E+06;  1.61849E-08  ; 2.28548E-06  
   2.09887500000E+06; -1.03993E-06  ; 3.47433E-06  
   2.10056250000E+06; -4.41113E-07  ; 4.11909E-06  
   2.10225000000E+06; -9.25689E-07  ; 3.98316E-06  
   2.10393750000E+06; -4.14926E-07  ; 2.60616E-06  
   2.10562500000E+06;  1.71415E-07  ; 3.4012E-06   
   2.10731250000E+06; -6.92249E-07  ; 3.9181E-06   
   2.10900000000E+06;  1.07164E-06  ; 5.27413E-06  
   2.11068750000E+06; -1.82216E-06  ; 3.08218E-06  
   2.11237500000E+06; -1.40374E-06  ; 3.51124E-06  
   2.11406250000E+06; -1.07015E-06  ; 4.83146E-06  
   2.11575000000E+06;  5.20893E-07  ; 3.48329E-06  
   2.11743750000E+06; -1.71354E-07  ; 2.16816E-06  
   2.11912500000E+06;  8.06894E-07  ; 2.23531E-06  
   2.12081250000E+06;  1.50067E-07  ; 3.10792E-06  
   2.12250000000E+06; -1.20343E-06  ; 2.76851E-06  
   2.12418750000E+06; -6.17643E-07  ; 2.77546E-06  
   2.12587500000E+06; -1.46042E-06  ; 4.8095E-06   
   2.12756250000E+06;  1.60374E-06  ; 4.14122E-06  
   2.12925000000E+06; -9.58988E-07  ; 2.53416E-06  
   2.13093750000E+06;  1.54112E-06  ; 3.78416E-06  
   2.13262500000E+06; -1.5622E-06   ; 2.33575E-06  
   2.13431250000E+06; -2.0999E-06   ; 4.66183E-06  
   2.13600000000E+06; -5.62381E-07  ; 5.02967E-06  
   2.13768750000E+06; -5.78024E-07  ; 3.60967E-06  
   2.13937500000E+06; -5.77113E-07  ; 3.37485E-06  
   2.14106250000E+06;  1.14744E-07  ; 3.48758E-06  
   2.14275000000E+06; -2.15042E-06  ; 2.11595E-06  
   2.14443750000E+06;  6.36699E-07  ; 3.05115E-06  
   2.14612500000E+06; -1.63355E-06  ; 3.90213E-06  
   2.14781250000E+06; -7.94506E-07  ; 4.67534E-06  
   2.14950000000E+06;  3.55629E-07  ; 3.44985E-06  
   2.15118750000E+06; -8.36768E-07  ; 4.67356E-06  
   2.15287500000E+06; -9.18827E-07  ; 3.65584E-06  
   2.15456250000E+06;  9.83411E-07  ; 2.14213E-06  
   2.15625000000E+06; -1.16406E-06  ; 2.71117E-06  
   2.15793750000E+06; -2.55597E-07  ; 3.48083E-06  
   2.15962500000E+06; -4.59689E-07  ; 4.21861E-06  
   2.16131250000E+06;  5.03564E-07  ; 2.94026E-06  
   2.16300000000E+06; -1.08913E-06  ; 3.78937E-06  
   2.16468750000E+06; -1.48007E-06  ; 3.00056E-06  
   2.16637500000E+06; -6.88817E-07  ; 3.07204E-06  
   2.16806250000E+06; -2.56135E-07  ; 1.3424E-06   
   2.16975000000E+06; -8.05639E-07  ; 1.88002E-06  
   2.17143750000E+06; -1.53799E-06  ; 2.38159E-06  
   2.17312500000E+06; -1.47189E-06  ; 3.53869E-06  
   2.17481250000E+06;  3.07836E-07  ; 3.29874E-06  
   2.17650000000E+06;  7.80457E-07  ; 3.717E-06    
   2.17818750000E+06; -4.18054E-08  ; 3.60738E-06  
   2.17987500000E+06; -1.39728E-06  ; 2.37529E-06  
   2.18156250000E+06;  2.25849E-08  ; 4.76457E-06  
   2.18325000000E+06; -4.04994E-07  ; 4.52838E-06  
   2.18493750000E+06; -2.74977E-07  ; 4.01882E-06  
   2.18662500000E+06;  1.3424E-06   ; 2.04377E-06  
   2.18831250000E+06; -5.24041E-07  ; 3.76887E-06  
   2.19000000000E+06; -7.74387E-07  ; 2.61044E-06  
   2.19168750000E+06; -1.49116E-06  ; 3.29635E-06  
   2.19337500000E+06; -8.14161E-07  ; 3.62329E-06  
   2.19506250000E+06; -1.12696E-07  ; 4.00562E-06  
   2.19675000000E+06; -8.28366E-07  ; 4.58936E-06  
   2.19843750000E+06;  6.40188E-07  ; 3.48713E-06  
   2.20012500000E+06; -7.47273E-07  ; 3.4788E-06   
   2.20181250000E+06; -5.28515E-07  ; 2.15571E-06  
   2.20350000000E+06; -1.22659E-06  ; 4.50424E-06  
   2.20518750000E+06; -1.06939E-06  ; 2.46672E-06  
   2.20687500000E+06; -1.24537E-06  ; 4.98499E-06  
   2.20856250000E+06; -1.76131E-06  ; 6.29118E-06  
   2.21025000000E+06;  9.25553E-07  ; 5.88594E-06  
   2.21193750000E+06; -3.70918E-07  ; 4.43158E-06  
   2.21362500000E+06;  1.94534E-06  ; 1.67385E-06  
   2.21531250000E+06; -2.5439E-07   ; 2.71324E-06  
   2.21700000000E+06;  5.23178E-07  ; 3.81021E-06  
   2.21868750000E+06;  6.23806E-07  ; 1.58147E-06  
   2.22037500000E+06; -2.34988E-06  ; 1.77637E-06  
   2.22206250000E+06; -1.40043E-06  ; 1.71723E-06  
   2.22375000000E+06; -1.45652E-06  ; 2.38252E-06  
   2.22543750000E+06; -1.57479E-06  ; 3.19567E-06  
   2.22712500000E+06; -1.69167E-06  ; 5.41871E-06  
   2.22881250000E+06;  2.24045E-06  ; 4.67465E-06  
   2.23050000000E+06;  1.44103E-06  ; 3.78135E-06  
   2.23218750000E+06; -2.09521E-06  ; 6.89996E-07  
   2.23387500000E+06; -1.63879E-06  ; 2.31759E-06  
   2.23556250000E+06; -1.12698E-06  ; 4.09698E-06  
   2.23725000000E+06;  9.87194E-09  ; 2.31511E-06  
   2.23893750000E+06; -1.69477E-07  ; 2.78412E-06  
   2.24062500000E+06;  5.18544E-08  ; 1.77885E-06  
   2.24231250000E+06; -2.29468E-06  ; 2.09679E-06  
   2.24400000000E+06; -8.11001E-07  ; 5.525E-06    
   2.24568750000E+06; -1.86969E-06  ; 4.99966E-06  
   2.24737500000E+06;  3.41876E-07  ; 6.65174E-06  
   2.24906250000E+06;  1.05309E-06  ; 3.34375E-06  
   2.25075000000E+06;  8.78981E-07  ; 1.34076E-06  
   2.25243750000E+06;  6.11315E-07  ; 2.53299E-06  
   2.25412500000E+06; -5.06712E-07  ; 2.25783E-06  
   2.25581250000E+06; -1.30967E-06  ; 5.0575E-06   
   2.25750000000E+06; -1.36225E-06  ; 2.24284E-06  
   2.25918750000E+06; -2.4967E-06   ; 2.11865E-06  
   2.26087500000E+06; -1.47461E-07  ; 4.30155E-06  
   2.26256250000E+06; -1.74081E-07  ; 2.11401E-06  
   2.26425000000E+06; -4.76352E-07  ; 1.85649E-06  
   2.26593750000E+06; -1.52462E-06  ; 7.67529E-07  
   2.26762500000E+06; -2.91939E-06  ; 2.55832E-06  
   2.26931250000E+06;  3.82408E-07  ; 6.88808E-06  
   2.27100000000E+06;  2.44768E-07  ; 1.94357E-06  
   2.27268750000E+06; -7.73568E-07  ; 7.37195E-06  
   2.27437500000E+06;  2.67579E-06  ; 3.77779E-06  
   2.27606250000E+06;  2.83043E-07  ; 3.13234E-06  
   2.27775000000E+06;  3.3022E-06   ; 9.08587E-07  
   2.27943750000E+06;  3.94357E-06  ;-3.95404E-07  
   2.28112500000E+06; -5.39142E-06  ;-2.2455E-06   
   2.28281250000E+06; -4.25472E-06  ; 2.32378E-06  
   2.28450000000E+06; -9.80681E-06  ; 3.36271E-06  
   2.28618750000E+06;  8.81143E-08  ; 8.18872E-06  
   2.28787500000E+06;  1.08158E-06  ; 8.49633E-06  
   2.28956250000E+06;  2.45156E-06  ; 5.84959E-06  
   2.29125000000E+06;  9.23353E-07  ; 2.1957E-06   
   2.29293750000E+06;  1.99951E-06  ; 1.6951E-06   
   2.29462500000E+06; -1.39808E-06  ;-5.11825E-07  
   2.29631250000E+06; -4.90519E-06  ;-1.00386E-06  
   2.29800000000E+06; -1.54598E-06  ; 4.66703E-06  
   2.29968750000E+06; -2.58246E-06  ; 3.08861E-06  
   2.30137500000E+06;  5.12536E-07  ; 3.19086E-06  
   2.30306250000E+06; -2.82814E-06  ; 3.11163E-06  
   2.30475000000E+06; -2.03719E-06  ; 4.64723E-06  
   2.30643750000E+06; -1.28964E-06  ; 4.96593E-06  
   2.30812500000E+06; -2.79382E-07  ; 4.19739E-06  
   2.30981250000E+06;  1.87538E-07  ; 4.45218E-06  
   2.31150000000E+06; -1.24877E-06  ; 4.54219E-06  
   2.31318750000E+06; -1.69503E-07  ; 4.43281E-06  
   2.31487500000E+06;  2.36802E-07  ; 3.78291E-06  
   2.31656250000E+06;  1.12217E-06  ; 3.64548E-06  
   2.31825000000E+06; -8.04512E-08  ; 2.79619E-06  
   2.31993750000E+06; -2.33994E-06  ; 2.49021E-06  
   2.32162500000E+06; -9.61886E-08  ; 2.78039E-06  
   2.32331250000E+06; -2.9278E-07   ; 1.68607E-06  
   2.32500000000E+06; -1.37888E-06  ; 2.9588E-06   
   2.32668750000E+06; -2.58029E-07  ; 5.20494E-06  
   2.32837500000E+06; -1.77621E-06  ; 2.11508E-06  
   2.33006250000E+06; -8.44238E-07  ; 4.43427E-06  
   2.33175000000E+06; -1.41722E-07  ; 3.77476E-06  
   2.33343750000E+06; -3.3904E-07   ; 4.25913E-06  
   2.33512500000E+06; -1.17654E-06  ; 3.03158E-06  
   2.33681250000E+06; -1.74806E-06  ; 3.72976E-06  
   2.33850000000E+06; -5.82863E-07  ; 1.34308E-06  
   2.34018750000E+06; -5.91848E-07  ; 4.04607E-06  
   2.34187500000E+06; -3.97371E-07  ; 4.93225E-06  
   2.34356250000E+06; -7.28207E-07  ; 3.40141E-06  
   2.34525000000E+06; -6.29383E-07  ; 5.05103E-06  
   2.34693750000E+06;  8.51576E-08  ; 3.57745E-06  
   2.34862500000E+06;  9.09309E-07  ; 3.2047E-06   
   2.35031250000E+06; -6.38391E-07  ; 4.49365E-06  
   2.35200000000E+06; -9.26455E-07  ; 4.52396E-06  
   2.35368750000E+06; -1.44109E-06  ; 2.68357E-06  
   2.35537500000E+06; -2.22711E-06  ; 4.56371E-06  
   2.35706250000E+06; -2.77698E-06  ; 4.57092E-06  
   2.35875000000E+06;  4.56294E-07  ; 4.79867E-06  
   2.36043750000E+06; -1.40591E-06  ; 3.67723E-06  
   2.36212500000E+06; -1.82176E-06  ; 2.96629E-06  
   2.36381250000E+06; -1.01708E-06  ; 4.08008E-06  
   2.36550000000E+06; -1.03329E-06  ; 4.53319E-06  
   2.36718750000E+06; -3.93191E-07  ; 3.14113E-06  
   2.36887500000E+06; -4.57887E-07  ; 4.8289E-06   
   2.37056250000E+06; -8.94854E-07  ; 3.75695E-06  
   2.37225000000E+06; -1.18584E-06  ; 4.1785E-06   
   2.37393750000E+06;  2.92846E-07  ; 2.28852E-06  
   2.37562500000E+06; -1.80229E-06  ; 4.90287E-06  
   2.37731250000E+06; -5.13003E-07  ; 3.4885E-06   
   2.37900000000E+06; -2.03005E-06  ; 4.39929E-06  
   2.38068750000E+06; -1.85048E-06  ; 3.87985E-06  
   2.38237500000E+06; -2.19788E-06  ; 2.80235E-06  
   2.38406250000E+06; -4.00586E-07  ; 4.93556E-06  
   2.38575000000E+06; -1.30268E-06  ; 2.25212E-06  
   2.38743750000E+06; -1.52882E-06  ; 3.20196E-06  
   2.38912500000E+06; -1.73552E-06  ; 4.26272E-06  
   2.39081250000E+06; -8.92188E-07  ; 4.1273E-06   
   2.39250000000E+06; -1.05439E-06  ; 3.69632E-06  
   2.39418750000E+06; -1.38626E-06  ; 3.41882E-06  
   2.39587500000E+06; -3.0668E-07   ; 4.31649E-06  
   2.39756250000E+06; -2.75647E-06  ; 3.43357E-06  
   2.39925000000E+06; -1.18914E-06  ; 4.33637E-06  
   2.40093750000E+06; -1.03742E-06  ; 3.18325E-06  
   2.40262500000E+06; -3.19499E-07  ; 3.32629E-06  
   2.40431250000E+06; -1.29855E-06  ; 3.8112E-06   
   2.40600000000E+06; -5.53143E-07  ; 2.4973E-06   
   2.40768750000E+06; -2.34693E-06  ; 3.23032E-06  
   2.40937500000E+06; -1.09307E-06  ; 3.72699E-06  
   2.41106250000E+06; -7.03206E-07  ; 5.2771E-06   
   2.41275000000E+06; -1.85985E-07  ; 3.09378E-06  
   2.41443750000E+06; -4.90605E-08  ; 2.84792E-06  
   2.41612500000E+06; -1.89813E-06  ; 2.6137E-06   
   2.41781250000E+06; -3.22261E-08  ; 4.34968E-06  
   2.41950000000E+06; -1.57649E-06  ; 4.35777E-06  
   2.42118750000E+06; -1.22721E-06  ; 4.83341E-06  
   2.42287500000E+06; -3.40069E-07  ; 3.35604E-06  
   2.42456250000E+06; -1.39897E-06  ; 2.98357E-06  
   2.42625000000E+06;  1.12368E-06  ; 1.94195E-06  
   2.42793750000E+06; -5.17067E-07  ; 4.44688E-06  
   2.42962500000E+06; -1.09271E-06  ; 3.48289E-06  
   2.43131250000E+06; -1.66048E-06  ; 2.88224E-06  
   2.43300000000E+06; -1.19077E-06  ; 3.16109E-06  
   2.43468750000E+06; -4.30719E-07  ; 3.53856E-06  
   2.43637500000E+06; -8.13785E-07  ; 3.76437E-06  
   2.43806250000E+06; -1.36698E-06  ; 3.6802E-06   
   2.43975000000E+06; -1.05204E-06  ; 2.76982E-06  
   2.44143750000E+06; -3.84805E-07  ; 2.75536E-06  
   2.44312500000E+06; -1.12475E-06  ; 4.96524E-06  
   2.44481250000E+06; -2.73099E-06  ; 2.51238E-06  
   2.44650000000E+06; -7.11656E-07  ; 5.90332E-06  
   2.44818750000E+06;  5.96296E-07  ; 3.75864E-06  
   2.44987500000E+06;  1.88393E-07  ; 3.96447E-06  
   2.45156250000E+06; -2.32489E-06  ; 2.81246E-06  
   2.45325000000E+06;  9.19933E-07  ; 4.07309E-06  
   2.45493750000E+06;  3.65656E-07  ; 3.39754E-06  
   2.45662500000E+06; -1.49331E-06  ; 4.91877E-06  
   2.45831250000E+06; -1.44172E-06  ; 3.85352E-06  
   2.46000000000E+06;  4.45052E-07  ; 2.79748E-06  
   2.46168750000E+06; -1.14446E-06  ; 4.41566E-06  
   2.46337500000E+06; -1.22405E-06  ; 2.6719E-06   
   2.46506250000E+06;  5.22766E-07  ; 5.09326E-06  
   2.46675000000E+06; -8.38391E-07  ; 3.32341E-06  
   2.46843750000E+06;  4.57726E-07  ; 2.82656E-06  
   2.47012500000E+06; -5.46996E-07  ; 3.04951E-06  
   2.47181250000E+06;  1.7545E-06   ; 4.28991E-06  
   2.47350000000E+06; -7.18243E-07  ; 3.93764E-06  
   2.47518750000E+06; -1.49994E-06  ; 4.149E-06    
   2.47687500000E+06; -1.10367E-07  ; 3.79526E-06  
   2.47856250000E+06; -1.37497E-06  ; 3.31785E-06  
   2.48025000000E+06; -4.36565E-07  ; 3.68755E-06  
   2.48193750000E+06; -1.1349E-06   ; 5.69937E-06  
   2.48362500000E+06; -9.67453E-08  ; 4.73018E-06  
   2.48531250000E+06; -5.98386E-07  ; 3.26124E-06  
   2.48700000000E+06; -2.65875E-06  ; 4.05717E-06  
   2.48868750000E+06; -4.46027E-07  ; 3.62379E-06  
   2.49037500000E+06; -1.75435E-06  ; 4.7512E-06   
   2.49206250000E+06; -1.03648E-06  ; 2.69644E-06  
   2.49375000000E+06; -1.19558E-06  ; 2.91351E-06  
   2.49543750000E+06; -2.06013E-06  ; 5.08097E-06  
   2.49712500000E+06; -1.56444E-06  ; 2.37011E-06  
   2.49881250000E+06; -1.08136E-06  ; 4.35373E-06  
   2.50050000000E+06; -2.039E-06    ; 2.11357E-06  
   2.50218750000E+06; -9.55151E-07  ; 2.95736E-06  
   2.50387500000E+06;  2.46739E-07  ; 3.18868E-06  
   2.50556250000E+06; -9.21217E-07  ; 4.08917E-06  
   2.50725000000E+06; -8.96366E-07  ; 4.17229E-06  
   2.50893750000E+06; -4.77576E-07  ; 4.52479E-06  
   2.51062500000E+06; -5.27398E-07  ; 5.95676E-06  
   2.51231250000E+06; -2.8493E-07   ; 3.67998E-06  
   2.51400000000E+06; -8.42111E-07  ; 3.44974E-06  
   2.51568750000E+06; -1.22723E-06  ; 2.9648E-06   
   2.51737500000E+06; -4.42277E-07  ; 3.41715E-06  
   2.51906250000E+06; -2.06453E-06  ; 3.10781E-06  
   2.52075000000E+06;  3.59113E-07  ; 5.82086E-06  
   2.52243750000E+06; -1.9627E-07   ; 4.0729E-06   
   2.52412500000E+06;  2.79198E-07  ; 4.61609E-06  
   2.52581250000E+06;  8.0639E-07   ; 2.54272E-06  
   2.52750000000E+06; -1.04971E-06  ; 4.08651E-06  
   2.52918750000E+06; -4.61308E-07  ; 4.30889E-06  
   2.53087500000E+06; -5.57454E-07  ; 5.22423E-06  
   2.53256250000E+06; -1.07547E-06  ; 3.45933E-06  
   2.53425000000E+06; -1.67556E-06  ; 4.9049E-06   
   2.53593750000E+06;  2.7247E-07   ; 4.41313E-06  
   2.53762500000E+06; -1.46928E-07  ; 4.74505E-06  
   2.53931250000E+06; -6.63976E-07  ; 3.27656E-06  
   2.54100000000E+06; -1.36665E-06  ; 3.71858E-06  
   2.54268750000E+06; -2.37886E-06  ; 2.85857E-06  
   2.54437500000E+06; -2.42059E-06  ; 4.12325E-06  
   2.54606250000E+06;  2.19505E-07  ; 3.93969E-06  
   2.54775000000E+06; -8.52857E-08  ; 4.62722E-06  
   2.54943750000E+06; -1.25622E-06  ; 3.60482E-06  
   2.55112500000E+06; -5.94873E-07  ; 3.16047E-06  
   2.55281250000E+06; -2.55456E-07  ; 4.74922E-06  
   2.55450000000E+06; -9.36707E-07  ; 3.83336E-06  
   2.55618750000E+06; -5.97864E-07  ; 4.05315E-06  
   2.55787500000E+06; -2.60486E-06  ; 3.66442E-06  
   2.55956250000E+06; -1.35879E-06  ; 3.87152E-06  
   2.56125000000E+06; -1.34699E-06  ; 4.74436E-06  
   2.56293750000E+06; -7.53847E-07  ; 4.42101E-06  
   2.56462500000E+06; -1.22249E-07  ; 4.19464E-06  
   2.56631250000E+06; -2.97215E-06  ; 3.3541E-06   
   2.56800000000E+06; -6.1243E-07   ; 3.21676E-06  
   2.56968750000E+06;  7.04185E-09  ; 4.65318E-06  
   2.57137500000E+06; -2.46333E-08  ; 4.97056E-06  
   2.57306250000E+06; -1.19195E-06  ; 4.92001E-06  
   2.57475000000E+06; -3.94291E-07  ; 5.16611E-06  
   2.57643750000E+06; -7.33772E-07  ; 3.9626E-06   
   2.57812500000E+06; -1.96081E-06  ; 2.95871E-06  
   2.57981250000E+06;  9.6613E-09   ; 4.59121E-06  
   2.58150000000E+06; -1.08311E-06  ; 4.15783E-06  
   2.58318750000E+06; -9.9472E-07   ; 3.15911E-06  
   2.58487500000E+06; -1.54687E-06  ; 3.13925E-06  
   2.58656250000E+06; -9.2982E-07   ; 3.66789E-06  
   2.58825000000E+06; -5.03612E-07  ; 4.44577E-06  
   2.58993750000E+06; -6.80841E-07  ; 4.92925E-06  
   2.59162500000E+06; -8.94281E-07  ; 2.91409E-06  
   2.59331250000E+06; -4.80534E-07  ; 2.32726E-06  
   2.59500000000E+06;  1.80854E-07  ; 4.16238E-06  
   2.59668750000E+06; -1.21917E-07  ; 4.64339E-06  
   2.59837500000E+06; -1.25234E-06  ; 4.39987E-06  
   2.60006250000E+06; -1.89684E-06  ; 3.16244E-06  
   2.60175000000E+06;  3.74798E-07  ; 4.77159E-06  
   2.60343750000E+06;  8.85279E-08  ; 5.79773E-06  
   2.60512500000E+06; -1.16315E-06  ; 4.76459E-06  
   2.60681250000E+06;  7.33043E-07  ; 4.67841E-06  
   2.60850000000E+06; -5.17645E-09  ; 4.05683E-06  
   2.61018750000E+06; -7.23032E-07  ; 4.44992E-06  
   2.61187500000E+06; -1.80899E-06  ; 5.38162E-06  
   2.61356250000E+06; -1.17459E-06  ; 2.77679E-06  
   2.61525000000E+06; -2.00525E-06  ; 4.72798E-06  
   2.61693750000E+06; -1.05806E-06  ; 3.9644E-06   
   2.61862500000E+06;  1.35079E-07  ; 3.96906E-06  
   2.62031250000E+06; -1.48063E-06  ; 3.93594E-06  
   2.62200000000E+06; -1.05751E-06  ; 3.33723E-06  
   2.62368750000E+06; -6.17959E-07  ; 3.34282E-06  
   2.62537500000E+06; -1.08403E-06  ; 5.91096E-06  
   2.62706250000E+06; -1.13635E-06  ; 4.81117E-06  
   2.62875000000E+06;  4.78268E-07  ; 2.78296E-06  
   2.63043750000E+06; -8.99699E-07  ; 4.64608E-06  
   2.63212500000E+06; -1.50364E-06  ; 2.18831E-06  
   2.63381250000E+06;  1.82946E-07  ; 4.32572E-06  
   2.63550000000E+06; -5.53556E-07  ; 5.05688E-06  
   2.63718750000E+06; -5.48544E-07  ; 5.5295E-06   
   2.63887500000E+06; -1.42519E-06  ; 2.92022E-06  
   2.64056250000E+06; -1.07802E-06  ; 3.31921E-06  
   2.64225000000E+06; -6.99078E-07  ; 4.15617E-06  
   2.64393750000E+06; -2.85342E-06  ; 4.66707E-06  
   2.64562500000E+06; -1.32678E-06  ; 3.8196E-06   
   2.64731250000E+06; -4.52978E-07  ; 5.06313E-06  
   2.64900000000E+06; -1.96849E-06  ; 3.93198E-06  
   2.65068750000E+06; -9.56561E-07  ; 3.61977E-06  
   2.65237500000E+06; -8.08325E-07  ; 4.96438E-06  
   2.65406250000E+06; -1.14333E-06  ; 3.52294E-06  
   2.65575000000E+06; -9.06832E-07  ; 6.23069E-06  
   2.65743750000E+06; -6.03806E-07  ; 2.24183E-06  
   2.65912500000E+06; -4.19082E-07  ; 2.85523E-06  
   2.66081250000E+06; -2.69379E-06  ; 4.74695E-06  
   2.66250000000E+06; -1.31308E-06  ; 4.02427E-06  
   2.66418750000E+06; -9.09603E-07  ; 2.19644E-06  
   2.66587500000E+06; -6.06128E-07  ; 6.46236E-06  
   2.66756250000E+06;  1.12822E-06  ; 5.70834E-06  
   2.66925000000E+06; -5.09942E-07  ; 6.46794E-06  
   2.67093750000E+06; -1.7343E-06   ; 5.87098E-06  
   2.67262500000E+06; -5.51403E-07  ; 4.28892E-06  
   2.67431250000E+06; -1.17481E-06  ; 5.28265E-06  
   2.67600000000E+06; -6.2207E-08   ; 4.46206E-06  
   2.67768750000E+06; -9.60001E-07  ; 3.14934E-06  
   2.67937500000E+06; -3.13819E-07  ; 3.82158E-06  
   2.68106250000E+06; -9.95025E-07  ; 3.26812E-06  
   2.68275000000E+06;  1.16973E-06  ; 4.75371E-06  
   2.68443750000E+06; -1.79356E-06  ; 4.6531E-06   
   2.68612500000E+06; -3.52863E-07  ; 3.10817E-06  
   2.68781250000E+06; -1.1175E-06   ; 4.17491E-06  
   2.68950000000E+06; -3.98136E-07  ; 5.98865E-06  
   2.69118750000E+06; -2.34882E-06  ; 4.06555E-06  
   2.69287500000E+06;  1.27219E-06  ; 4.19531E-06  
   2.69456250000E+06; -1.7035E-06   ; 4.75501E-06  
   2.69625000000E+06;  7.75884E-07  ; 4.51068E-06  
   2.69793750000E+06; -5.36867E-07  ; 4.51717E-06  
   2.69962500000E+06; -1.58356E-06  ; 4.23012E-06  
   2.70131250000E+06; -1.57467E-06  ; 4.87978E-06  
   2.70300000000E+06; -5.88254E-07  ; 3.60792E-06  
   2.70468750000E+06; -1.52353E-06  ; 2.63771E-06  
   2.70637500000E+06;  2.57977E-07  ; 6.11029E-06  
   2.70806250000E+06; -2.14032E-06  ; 2.98943E-06  
   2.70975000000E+06;  1.11964E-06  ; 2.90298E-06  
   2.71143750000E+06; -2.598E-06    ; 2.21163E-06  
   2.71312500000E+06;  4.72203E-07  ; 3.1767E-06   
   2.71481250000E+06; -6.42521E-07  ; 3.52154E-06  
   2.71650000000E+06;  1.77714E-07  ; 4.03031E-06  
   2.71818750000E+06;  1.81289E-07  ; 4.80059E-06  
   2.71987500000E+06; -4.25318E-07  ; 3.29031E-06  
   2.72156250000E+06; -5.5662E-07   ; 4.42748E-06  
   2.72325000000E+06; -1.25427E-06  ; 3.18251E-06  
   2.72493750000E+06; -9.0352E-07   ; 4.49051E-06  
   2.72662500000E+06; -9.89595E-07  ; 3.29726E-06  
   2.72831250000E+06; -6.46965E-07  ; 5.41042E-06  
   2.73000000000E+06; -3.47269E-07  ; 5.29387E-06  
   2.73168750000E+06; -6.50924E-07  ; 6.14553E-06  
   2.73337500000E+06; -3.53475E-07  ; 4.58732E-06  
   2.73506250000E+06; -4.15483E-07  ; 3.41093E-06  
   2.73675000000E+06; -2.95467E-06  ; 5.29542E-06  
   2.73843750000E+06; -8.66859E-07  ; 4.15389E-06  
   2.74012500000E+06; -1.19721E-06  ; 3.92556E-06  
   2.74181250000E+06; -6.62021E-07  ; 3.23146E-06  
   2.74350000000E+06; -1.32527E-06  ; 3.81382E-06  
   2.74518750000E+06; -5.00468E-07  ; 2.40329E-06  
   2.74687500000E+06; -5.34715E-08  ; 6.05561E-06  
   2.74856250000E+06;  4.75601E-08  ; 4.48594E-06  
   2.75025000000E+06; -7.39491E-07  ; 5.76497E-06  
   2.75193750000E+06;  9.1433E-08   ; 5.48022E-06  
   2.75362500000E+06;  1.0085E-07   ; 5.41894E-06  
   2.75531250000E+06; -1.53102E-06  ; 4.40953E-06  
   2.75700000000E+06; -6.58943E-07  ; 4.95809E-06  
   2.75868750000E+06; -3.50789E-07  ; 4.03747E-06  
   2.76037500000E+06; -1.42018E-06  ; 4.958E-06    
   2.76206250000E+06;  8.70733E-07  ; 4.57266E-06  
   2.76375000000E+06; -1.53107E-06  ; 4.87454E-06  
   2.76543750000E+06; -7.00167E-08  ; 2.95307E-06  
   2.76712500000E+06; -9.02011E-08  ; 3.38916E-06  
   2.76881250000E+06; -1.43158E-06  ; 3.4219E-06   
   2.77050000000E+06; -2.10452E-06  ; 4.26861E-06  
   2.77218750000E+06; -4.84695E-07  ; 3.01875E-06  
   2.77387500000E+06;  4.95638E-07  ; 4.11761E-06  
   2.77556250000E+06; -1.01505E-06  ; 3.98829E-06  
   2.77725000000E+06; -6.67512E-07  ; 4.35276E-06  
   2.77893750000E+06; -7.83152E-07  ; 4.55705E-06  
   2.78062500000E+06; -6.12848E-07  ; 5.13811E-06  
   2.78231250000E+06; -1.68322E-06  ; 5.01297E-06  
   2.78400000000E+06;  1.85542E-07  ; 4.96983E-06  
   2.78568750000E+06; -1.4793E-06   ; 4.83984E-06  
   2.78737500000E+06; -2.15544E-06  ; 5.47746E-06  
   2.78906250000E+06; -5.48652E-07  ; 3.20732E-06  
   2.79075000000E+06; -7.77251E-07  ; 4.8903E-06   
   2.79243750000E+06; -4.24302E-07  ; 5.26431E-06  
   2.79412500000E+06;  6.61774E-07  ; 3.31767E-06  
   2.79581250000E+06; -1.31527E-06  ; 2.25291E-06  
   2.79750000000E+06;  9.31593E-07  ; 5.19755E-06  
   2.79918750000E+06; -1.25963E-06  ; 2.91093E-06  
   2.80087500000E+06;  3.49774E-07  ; 3.12125E-06  
   2.80256250000E+06; -1.90263E-06  ; 4.89237E-06  
   2.80425000000E+06;  2.53736E-07  ; 4.00189E-06  
   2.80593750000E+06; -2.1487E-06   ; 5.00652E-06  
   2.80762500000E+06; -1.12597E-06  ; 3.60637E-06  
   2.80931250000E+06; -5.1284E-08   ; 3.93138E-06  
   2.81100000000E+06; -9.87604E-07  ; 4.53846E-06  
   2.81268750000E+06; -2.67047E-07  ; 4.47266E-06  
   2.81437500000E+06; -5.27537E-07  ; 4.44005E-06  
   2.81606250000E+06; -8.16589E-07  ; 5.17899E-06  
   2.81775000000E+06; -1.23897E-06  ; 5.15283E-06  
   2.81943750000E+06; -1.63826E-06  ; 5.04437E-06  
   2.82112500000E+06; -2.28281E-06  ; 4.03978E-06  
   2.82281250000E+06; -2.94619E-07  ; 6.43796E-06  
   2.82450000000E+06; -3.8945E-07   ; 4.33617E-06  
   2.82618750000E+06;  4.67661E-07  ; 3.14583E-06  
   2.82787500000E+06;  1.25848E-07  ; 3.75933E-06  
   2.82956250000E+06;  4.96365E-07  ; 4.32796E-06  
   2.83125000000E+06; -4.94179E-07  ; 4.76583E-06  
   2.83293750000E+06;  7.00405E-07  ; 4.33502E-06  
   2.83462500000E+06; -1.90885E-06  ; 3.5078E-06   
   2.83631250000E+06; -1.51829E-06  ; 4.71049E-06  
   2.83800000000E+06; -5.37729E-07  ; 4.62478E-06  
   2.83968750000E+06; -1.58744E-06  ; 3.7154E-06   
   2.84137500000E+06; -2.07852E-07  ; 4.5562E-06   
   2.84306250000E+06; -1.96036E-06  ; 4.47409E-06  
   2.84475000000E+06; -1.64218E-07  ; 4.34027E-06  
   2.84643750000E+06; -9.3764E-07   ; 5.45973E-06  
   2.84812500000E+06; -1.86238E-06  ; 2.13872E-06  
   2.84981250000E+06; -5.88211E-07  ; 4.34049E-06  
   2.85150000000E+06; -1.07653E-07  ; 3.58905E-06  
   2.85318750000E+06; -1.63997E-06  ; 4.27539E-06  
   2.85487500000E+06; -7.63855E-07  ; 5.42425E-06  
   2.85656250000E+06; -2.34452E-06  ; 4.77833E-06  
   2.85825000000E+06; -1.53907E-06  ; 3.73128E-06  
   2.85993750000E+06; -1.1592E-06   ; 4.53288E-06  
   2.86162500000E+06; -1.09953E-07  ; 5.26189E-06  
   2.86331250000E+06; -1.65104E-06  ; 3.78427E-06  
   2.86500000000E+06; -1.46351E-06  ; 4.21194E-06  
   2.86668750000E+06; -1.71549E-06  ; 5.85891E-06  
   2.86837500000E+06; -1.08256E-06  ; 5.46634E-06  
   2.87006250000E+06;  6.71608E-08  ; 4.69969E-06  
   2.87175000000E+06;  1.2016E-07   ; 2.6519E-06   
   2.87343750000E+06; -9.96648E-07  ; 2.66728E-06  
   2.87512500000E+06; -7.69282E-08  ; 3.87492E-06  
   2.87681250000E+06; -1.34848E-06  ; 4.39817E-06  
   2.87850000000E+06; -1.77509E-06  ; 4.28304E-06  
   2.88018750000E+06; -1.8037E-06   ; 5.5346E-06   
   2.88187500000E+06; -1.01805E-06  ; 4.3824E-06   
   2.88356250000E+06; -8.68672E-07  ; 3.95441E-06  
   2.88525000000E+06;  8.39322E-10  ; 4.96674E-06  
   2.88693750000E+06; -7.83133E-07  ; 3.80549E-06  
   2.88862500000E+06; -1.73229E-06  ; 3.98591E-06  
   2.89031250000E+06; -1.31429E-06  ; 4.82914E-06  
   2.89200000000E+06; -4.55685E-07  ; 3.96082E-06  
   2.89368750000E+06; -1.19157E-06  ; 4.04578E-06  
   2.89537500000E+06; -6.08554E-07  ; 4.10435E-06  
   2.89706250000E+06; -1.7943E-06   ; 3.31794E-06  
   2.89875000000E+06; -1.2712E-07   ; 4.78576E-06  
   2.90043750000E+06;  4.51033E-08  ; 5.01056E-06  
   2.90212500000E+06; -1.62988E-06  ; 4.89885E-06  
   2.90381250000E+06;  1.5038E-08   ; 4.21931E-06  
   2.90550000000E+06; -1.4019E-06   ; 4.50926E-06  
   2.90718750000E+06; -1.9904E-06   ; 5.67695E-06  
   2.90887500000E+06; -1.00887E-07  ; 4.61152E-06  
   2.91056250000E+06; -5.26574E-07  ; 3.70012E-06  
   2.91225000000E+06; -8.11661E-07  ; 3.28644E-06  
   2.91393750000E+06;  4.18801E-07  ; 3.58041E-06  
   2.91562500000E+06; -9.86356E-07  ; 3.06781E-06  
   2.91731250000E+06; -1.91027E-06  ; 4.67867E-06  
   2.91900000000E+06; -2.71245E-06  ; 4.24878E-06  
   2.92068750000E+06; -1.56904E-06  ; 5.69128E-06  
   2.92237500000E+06; -1.46052E-06  ; 5.68282E-06  
   2.92406250000E+06; -1.31369E-07  ; 4.22611E-06  
   2.92575000000E+06; -1.67245E-06  ; 4.00652E-06  
   2.92743750000E+06; -1.41888E-06  ; 5.1774E-06   
   2.92912500000E+06; -1.10594E-06  ; 3.81878E-06  
   2.93081250000E+06; -1.76995E-06  ; 4.73379E-06  
   2.93250000000E+06; -5.38507E-07  ; 6.42023E-06  
   2.93418750000E+06; -7.38512E-07  ; 5.35704E-06  
   2.93587500000E+06; -1.35977E-07  ; 5.52859E-06  
   2.93756250000E+06; -2.20842E-06  ; 4.99298E-06  
   2.93925000000E+06; -1.8286E-06   ; 3.90518E-06  
   2.94093750000E+06; -9.79353E-07  ; 4.38925E-06  
   2.94262500000E+06; -2.62424E-06  ; 3.99245E-06  
   2.94431250000E+06;  4.97258E-07  ; 3.82475E-06  
   2.94600000000E+06; -9.91705E-07  ; 5.66477E-06  
   2.94768750000E+06;  3.65279E-08  ; 4.00853E-06  
   2.94937500000E+06; -1.83294E-06  ; 5.64617E-06  
   2.95106250000E+06; -3.42616E-07  ; 4.53791E-06  
   2.95275000000E+06; -1.80324E-06  ; 5.78512E-06  
   2.95443750000E+06; -1.13413E-06  ; 4.64872E-06  
   2.95612500000E+06; -1.26913E-06  ; 5.0816E-06   
   2.95781250000E+06; -1.22501E-06  ; 3.0902E-06   
   2.95950000000E+06; -9.88022E-07  ; 4.54327E-06  
   2.96118750000E+06; -9.57058E-07  ; 4.80484E-06  
   2.96287500000E+06; -3.76306E-06  ; 3.35219E-06  
   2.96456250000E+06; -2.18361E-06  ; 5.28044E-06  
   2.96625000000E+06; -1.04223E-06  ; 4.65009E-06  
   2.96793750000E+06; -1.39458E-06  ; 5.17322E-06  
   2.96962500000E+06; -1.89657E-06  ; 4.28185E-06  
   2.97131250000E+06; -3.25036E-06  ; 5.27721E-06  
   2.97300000000E+06; -8.09309E-07  ; 4.99822E-06  
   2.97468750000E+06; -1.0905E-06   ; 3.13644E-06  
   2.97637500000E+06; -1.2438E-07   ; 3.68374E-06  
   2.97806250000E+06; -4.76962E-07  ; 4.80428E-06  
   2.97975000000E+06; -1.54011E-06  ; 3.88295E-06  
   2.98143750000E+06; -1.82571E-06  ; 6.50591E-06  
   2.98312500000E+06;  3.25767E-07  ; 6.08209E-06  
   2.98481250000E+06;  7.44025E-07  ; 4.56664E-06  
   2.98650000000E+06; -1.73266E-06  ; 5.29873E-06  
   2.98818750000E+06; -4.29112E-07  ; 5.17865E-06  
   2.98987500000E+06; -2.2372E-07   ; 6.17636E-06  
   2.99156250000E+06; -8.28097E-07  ; 5.8936E-06   
   2.99325000000E+06;  6.855E-07    ; 3.97691E-06  
   2.99493750000E+06; -1.2873E-06   ; 4.67833E-06  
   2.99662500000E+06; -1.68992E-06  ; 4.81861E-06  
   2.99831250000E+06; -1.55778E-06  ; 2.95305E-06  
   3.00000000000E+06; -2.34867E-07  ; 3.13976E-06  
