
  ZVRE, 2.05

  stimulus-start        ; stimulus-stop       ; stimulus-unit       ; nof-points; parameter-type; impedance-ohm
  3.00000000000E+05     ; 3.00000000000E+06   ; Hz                  ; 1601      ; RATIO_B2_B1   ; 50        

  conversion            ; time-domain         ; data-format         ; param-unit; smoothing     ; trace-math
  none                  ; none                ; RI                  ; none      ; none          ; none

  sweep-mode-type       ; notlinear-meas-mode 
  FUNDAMENTAL           ; none                


  freq              ;  reRATIO_B2_B ; imRATIO_B2_B  
   3.00000000000E+05;  1.54911E-06  ; 6.85498E-06  
   3.01687500000E+05;  1.63426E-06  ;-1.4139E-06   
   3.03375000000E+05;  3.35248E-06  ;-1.31532E-07  
   3.05062500000E+05;  9.52685E-07  ;-5.04933E-07  
   3.06750000000E+05;  1.64535E-06  ;-1.24412E-06  
   3.08437500000E+05; -3.60824E-06  ; 1.79067E-06  
   3.10125000000E+05;  1.49918E-06  ;-8.87718E-07  
   3.11812500000E+05;  2.3774E-06   ; 5.01619E-06  
   3.13500000000E+05; -4.51922E-07  ; 3.02433E-06  
   3.15187500000E+05; -1.003E-06    ;-1.39011E-06  
   3.16875000000E+05; -5.04134E-06  ; 4.49113E-06  
   3.18562500000E+05;  2.94697E-07  ; 1.65386E-06  
   3.20250000000E+05; -5.57958E-07  ; 4.31558E-06  
   3.21937500000E+05;  4.15614E-06  ; 1.89812E-06  
   3.23625000000E+05;  7.90654E-07  ; 2.69572E-06  
   3.25312500000E+05;  1.12494E-07  ; 1.88146E-06  
   3.27000000000E+05;  1.06237E-06  ; 1.26424E-06  
   3.28687500000E+05;  2.67704E-07  ;-3.63969E-06  
   3.30375000000E+05;  1.63787E-06  ;-6.8471E-07   
   3.32062500000E+05; -3.06699E-08  ; 2.69547E-06  
   3.33750000000E+05;  2.32588E-06  ; 5.93671E-06  
   3.35437500000E+05;  2.35206E-06  ;-1.17819E-06  
   3.37125000000E+05; -4.45521E-06  ; 1.00142E-06  
   3.38812500000E+05;  7.75084E-07  ; 1.28782E-07  
   3.40500000000E+05; -1.80601E-07  ; 1.84548E-06  
   3.42187500000E+05;  4.79507E-08  ; 1.64562E-06  
   3.43875000000E+05; -2.08985E-06  ; 9.67684E-07  
   3.45562500000E+05;  1.07318E-07  ; 1.4957E-06   
   3.47250000000E+05;  4.343E-06    ; 2.40452E-06  
   3.48937500000E+05; -1.07474E-06  ; 7.04498E-07  
   3.50625000000E+05; -1.48947E-06  ; 5.02968E-06  
   3.52312500000E+05; -8.71294E-07  ; 1.00537E-06  
   3.54000000000E+05; -9.64123E-07  ; 6.6898E-07   
   3.55687500000E+05; -3.9084E-07   ; 2.3469E-06   
   3.57375000000E+05; -7.65532E-08  ; 3.38368E-07  
   3.59062500000E+05; -1.35915E-07  ;-7.39545E-07  
   3.60750000000E+05; -8.5849E-07   ; 3.52125E-06  
   3.62437500000E+05;  1.66021E-06  ;-2.90366E-06  
   3.64125000000E+05; -4.18769E-06  ; 9.75557E-07  
   3.65812500000E+05; -1.2013E-06   ; 1.13483E-06  
   3.67500000000E+05; -3.895E-08    ; 6.90932E-07  
   3.69187500000E+05;  3.77238E-07  ; 1.67219E-06  
   3.70875000000E+05; -1.12914E-06  ;-4.81E-06     
   3.72562500000E+05; -1.77867E-06  ; 6.60625E-07  
   3.74250000000E+05; -3.65844E-09  ; 6.0807E-07   
   3.75937500000E+05; -3.50733E-06  ; 3.06643E-06  
   3.77625000000E+05;  3.78301E-06  ;-5.81937E-07  
   3.79312500000E+05; -1.18571E-06  ; 1.44941E-06  
   3.81000000000E+05; -2.45045E-07  ;-5.06023E-07  
   3.82687500000E+05; -4.15953E-07  ;-2.02235E-06  
   3.84375000000E+05;  4.42107E-07  ; 5.0437E-07   
   3.86062500000E+05; -2.92213E-06  ; 1.58858E-06  
   3.87750000000E+05;  1.57349E-06  ; 3.78709E-06  
   3.89437500000E+05;  1.40191E-06  ; 2.54004E-06  
   3.91125000000E+05; -2.76102E-06  ; 1.56777E-06  
   3.92812500000E+05;  1.434E-06    ; 3.96256E-06  
   3.94500000000E+05; -5.42394E-07  ; 3.32902E-06  
   3.96187500000E+05;  9.01839E-08  ; 1.04099E-06  
   3.97875000000E+05; -1.98599E-06  ; 7.09046E-07  
   3.99562500000E+05;  1.2541E-08   ; 3.87152E-07  
   4.01250000000E+05;  1.64581E-06  ; 1.47364E-06  
   4.02937500000E+05; -1.27014E-06  ; 6.5514E-07   
   4.04625000000E+05;  1.78353E-06  ; 2.70056E-06  
   4.06312500000E+05; -1.42915E-06  ; 1.89526E-06  
   4.08000000000E+05;  3.67949E-06  ;-1.09015E-07  
   4.09687500000E+05; -8.39544E-07  ; 1.50385E-06  
   4.11375000000E+05; -2.76963E-06  ;-1.01977E-06  
   4.13062500000E+05;  1.76328E-06  ; 2.77128E-06  
   4.14750000000E+05;  4.56316E-07  ; 2.01162E-06  
   4.16437500000E+05;  1.09907E-06  ; 2.82352E-06  
   4.18125000000E+05;  2.21907E-06  ;-6.0809E-07   
   4.19812500000E+05; -9.6005E-08   ; 1.34439E-06  
   4.21500000000E+05; -2.06065E-06  ; 3.31008E-06  
   4.23187500000E+05; -2.67303E-06  ;-8.82383E-08  
   4.24875000000E+05; -4.60233E-07  ;-9.42907E-07  
   4.26562500000E+05;  3.54125E-06  ; 2.02399E-06  
   4.28250000000E+05;  4.34315E-06  ;-6.07407E-07  
   4.29937500000E+05;  8.0371E-08   ; 4.70438E-06  
   4.31625000000E+05; -4.09559E-06  ; 4.00219E-06  
   4.33312500000E+05; -4.00024E-07  ; 2.04071E-06  
   4.35000000000E+05; -4.64457E-07  ;-9.20507E-07  
   4.36687500000E+05;  1.00112E-06  ;-6.58859E-07  
   4.38375000000E+05; -1.28164E-06  ;-3.4287E-07   
   4.40062500000E+05;  5.28008E-07  ; 2.38535E-06  
   4.41750000000E+05;  2.13451E-06  ; 3.69215E-06  
   4.43437500000E+05; -2.46396E-07  ; 1.22618E-06  
   4.45125000000E+05; -3.11402E-06  ;-2.39043E-06  
   4.46812500000E+05;  2.22234E-06  ; 1.22362E-06  
   4.48500000000E+05; -1.2821E-06   ; 1.73604E-06  
   4.50187500000E+05;  8.32629E-07  ; 1.92484E-06  
   4.51875000000E+05;  1.01199E-06  ; 4.92782E-07  
   4.53562500000E+05;  1.01856E-06  ; 4.31055E-06  
   4.55250000000E+05;  7.35752E-07  ; 2.3435E-06   
   4.56937500000E+05; -2.16755E-07  ; 1.71709E-06  
   4.58625000000E+05; -1.37338E-07  ; 3.73521E-06  
   4.60312500000E+05;  1.4764E-06   ; 3.10891E-06  
   4.62000000000E+05;  5.1637E-07   ; 2.04766E-06  
   4.63687500000E+05; -4.31329E-07  ; 2.87712E-09  
   4.65375000000E+05; -3.23151E-07  ; 3.5192E-06   
   4.67062500000E+05;  1.24108E-06  ;-5.19063E-07  
   4.68750000000E+05; -2.62441E-06  ;-2.94548E-07  
   4.70437500000E+05;  1.70314E-06  ; 1.12334E-06  
   4.72125000000E+05;  2.6708E-06   ; 1.60642E-06  
   4.73812500000E+05; -3.13289E-06  ;-2.6979E-07   
   4.75500000000E+05; -1.61294E-06  ;-4.49839E-07  
   4.77187500000E+05;  2.05356E-06  ; 3.10127E-06  
   4.78875000000E+05; -7.788E-08    ; 3.52973E-06  
   4.80562500000E+05; -4.96745E-07  ;-3.48212E-06  
   4.82250000000E+05; -1.58377E-06  ; 1.84277E-06  
   4.83937500000E+05;  1.6519E-06   ; 1.97428E-06  
   4.85625000000E+05; -7.8029E-07   ; 1.97207E-06  
   4.87312500000E+05;  1.61663E-06  ; 2.69607E-06  
   4.89000000000E+05;  1.79622E-06  ; 8.77461E-07  
   4.90687500000E+05;  1.75191E-06  ; 1.39582E-06  
   4.92375000000E+05;  5.32645E-07  ; 2.28591E-07  
   4.94062500000E+05;  2.7856E-06   ; 1.24194E-06  
   4.95750000000E+05; -6.05544E-07  ; 8.06727E-07  
   4.97437500000E+05; -9.52834E-07  ; 2.47605E-06  
   4.99125000000E+05;  2.32514E-06  ; 2.52046E-06  
   5.00812500000E+05;  1.78427E-08  ;-1.07969E-06  
   5.02500000000E+05;  5.70766E-07  ;-1.31481E-08  
   5.04187500000E+05; -8.76379E-07  ; 1.81946E-06  
   5.05875000000E+05;  2.43071E-06  ; 2.96125E-06  
   5.07562500000E+05;  3.05399E-06  ; 5.90189E-07  
   5.09250000000E+05; -5.29383E-07  ; 2.49851E-06  
   5.10937500000E+05; -1.46364E-06  ; 1.11514E-06  
   5.12625000000E+05; -4.65311E-07  ; 2.09143E-06  
   5.14312500000E+05; -7.18987E-07  ;-1.4418E-06   
   5.16000000000E+05; -1.24808E-06  ; 1.41963E-06  
   5.17687500000E+05; -7.35274E-07  ; 7.20616E-07  
   5.19375000000E+05; -1.86464E-06  ; 1.68923E-07  
   5.21062500000E+05; -2.25575E-08  ; 1.57339E-06  
   5.22750000000E+05; -2.03862E-06  ; 3.48814E-06  
   5.24437500000E+05; -8.94488E-07  ; 2.4763E-06   
   5.26125000000E+05;  1.59851E-07  ; 4.27488E-07  
   5.27812500000E+05; -1.40232E-06  ; 4.63194E-07  
   5.29500000000E+05;  1.01238E-06  ; 2.18899E-06  
   5.31187500000E+05; -1.53706E-06  ; 3.76339E-06  
   5.32875000000E+05; -1.66113E-06  ; 1.44344E-06  
   5.34562500000E+05; -1.06847E-06  ; 5.12925E-07  
   5.36250000000E+05;  3.14278E-06  ;-4.6235E-08   
   5.37937500000E+05;  9.59661E-08  ; 2.53424E-06  
   5.39625000000E+05; -1.08895E-06  ;-8.22212E-08  
   5.41312500000E+05; -1.56101E-07  ; 1.87392E-07  
   5.43000000000E+05; -2.50522E-06  ; 1.81692E-06  
   5.44687500000E+05; -2.68355E-06  ; 2.3258E-06   
   5.46375000000E+05;  1.23222E-06  ; 2.27628E-06  
   5.48062500000E+05; -1.77753E-06  ; 1.82546E-06  
   5.49750000000E+05;  1.45743E-06  ; 2.40085E-06  
   5.51437500000E+05; -1.19602E-06  ; 1.92618E-06  
   5.53125000000E+05; -2.48801E-06  ; 2.66862E-06  
   5.54812500000E+05; -1.44442E-06  ;-8.60726E-07  
   5.56500000000E+05; -4.6253E-08   ; 2.22113E-06  
   5.58187500000E+05;  3.77004E-07  ; 2.37329E-06  
   5.59875000000E+05; -8.0145E-07   ; 1.7165E-07   
   5.61562500000E+05;  3.29723E-06  ; 3.88394E-06  
   5.63250000000E+05;  5.3318E-07   ; 1.00413E-06  
   5.64937500000E+05;  5.23254E-07  ; 1.29778E-06  
   5.66625000000E+05;  2.7817E-06   ;-1.99422E-06  
   5.68312500000E+05;  3.06712E-07  ; 5.258E-07    
   5.70000000000E+05;  6.49176E-07  ; 2.0371E-06   
   5.71687500000E+05;  6.76217E-07  ;-4.25841E-09  
   5.73375000000E+05; -6.54001E-07  ; 8.4853E-07   
   5.75062500000E+05;  4.41437E-06  ; 2.58853E-07  
   5.76750000000E+05; -4.66523E-07  ;-6.21919E-07  
   5.78437500000E+05; -1.73993E-06  ; 1.98667E-06  
   5.80125000000E+05;  8.96361E-07  ; 1.68536E-07  
   5.81812500000E+05;  4.71881E-07  ;-1.15708E-06  
   5.83500000000E+05;  1.11466E-06  ;-1.44058E-06  
   5.85187500000E+05; -8.78016E-07  ; 1.58989E-06  
   5.86875000000E+05;  2.89577E-06  ; 1.60544E-06  
   5.88562500000E+05; -3.48055E-06  ;-6.77263E-07  
   5.90250000000E+05;  1.90562E-06  ; 4.13605E-06  
   5.91937500000E+05;  1.66419E-07  ;-1.28565E-07  
   5.93625000000E+05; -1.65456E-06  ; 2.99196E-06  
   5.95312500000E+05;  1.00712E-06  ; 3.68041E-06  
   5.97000000000E+05; -1.68683E-06  ; 5.24425E-07  
   5.98687500000E+05;  1.3942E-08   ; 3.82813E-07  
   6.00375000000E+05;  3.48698E-06  ; 3.27902E-07  
   6.02062500000E+05; -3.69399E-06  ; 1.52139E-06  
   6.03750000000E+05; -3.04118E-06  ; 1.12623E-06  
   6.05437500000E+05;  2.1622E-06   ; 2.62773E-06  
   6.07125000000E+05; -8.56971E-07  ;-6.51075E-08  
   6.08812500000E+05; -2.34047E-06  ; 3.5357E-06   
   6.10500000000E+05; -2.85635E-06  ; 3.96384E-07  
   6.12187500000E+05;  1.20015E-06  ; 3.16821E-06  
   6.13875000000E+05; -2.39682E-06  ; 3.07984E-07  
   6.15562500000E+05;  1.08709E-07  ; 8.85646E-07  
   6.17250000000E+05; -1.13845E-07  ; 5.32756E-07  
   6.18937500000E+05; -6.31455E-08  ;-2.64688E-06  
   6.20625000000E+05; -1.50206E-07  ; 1.3431E-06   
   6.22312500000E+05; -5.43222E-07  ; 4.06273E-06  
   6.24000000000E+05;  1.57127E-07  ; 3.04005E-06  
   6.25687500000E+05; -2.39602E-06  ; 2.50187E-06  
   6.27375000000E+05; -6.1243E-07   ; 1.96269E-08  
   6.29062500000E+05;  1.00573E-06  ;-1.1715E-06   
   6.30750000000E+05; -1.32499E-06  ; 1.34403E-06  
   6.32437500000E+05; -3.15819E-07  ; 2.2002E-06   
   6.34125000000E+05; -3.16157E-06  ; 1.73479E-06  
   6.35812500000E+05;  1.28103E-06  ; 1.46921E-06  
   6.37500000000E+05; -4.32393E-06  ; 1.20413E-06  
   6.39187500000E+05; -2.12284E-06  ; 1.19682E-06  
   6.40875000000E+05; -8.92434E-07  ; 1.05588E-06  
   6.42562500000E+05;  2.71197E-06  ; 1.81828E-06  
   6.44250000000E+05; -3.85794E-07  ; 2.45716E-06  
   6.45937500000E+05; -2.3011E-06   ; 4.04098E-07  
   6.47625000000E+05; -1.64771E-06  ; 1.62054E-08  
   6.49312500000E+05; -2.10646E-06  ; 2.05317E-07  
   6.51000000000E+05; -1.55682E-06  ; 2.2823E-06   
   6.52687500000E+05; -4.86161E-07  ; 3.55484E-07  
   6.54375000000E+05;  3.59484E-07  ; 1.84037E-06  
   6.56062500000E+05; -1.08249E-06  ;-5.85578E-07  
   6.57750000000E+05;  1.37297E-07  ; 3.3494E-06   
   6.59437500000E+05; -2.11892E-06  ; 1.75703E-06  
   6.61125000000E+05;  4.23973E-07  ; 2.75963E-06  
   6.62812500000E+05; -1.62138E-06  ; 4.17424E-06  
   6.64500000000E+05; -1.67989E-07  ; 1.59468E-06  
   6.66187500000E+05;  2.63882E-06  ; 9.62713E-07  
   6.67875000000E+05;  7.32575E-07  ; 2.6933E-06   
   6.69562500000E+05; -2.5848E-07   ; 7.29034E-07  
   6.71250000000E+05;  1.74194E-06  ; 1.00346E-06  
   6.72937500000E+05;  2.29465E-07  ; 1.24744E-07  
   6.74625000000E+05;  5.03993E-07  ; 5.14705E-07  
   6.76312500000E+05;  1.58462E-07  ; 2.65274E-06  
   6.78000000000E+05;  2.65909E-08  ; 1.62839E-06  
   6.79687500000E+05;  1.56089E-06  ; 2.01339E-06  
   6.81375000000E+05;  1.16746E-06  ; 1.92765E-06  
   6.83062500000E+05; -3.1285E-08   ; 2.3082E-06   
   6.84750000000E+05; -2.49668E-06  ; 2.67814E-06  
   6.86437500000E+05; -7.86341E-07  ; 1.49402E-06  
   6.88125000000E+05;  1.50722E-06  ; 1.78388E-06  
   6.89812500000E+05;  1.18179E-06  ; 1.82669E-06  
   6.91500000000E+05;  8.87161E-07  ; 2.39931E-06  
   6.93187500000E+05; -1.5356E-07   ; 2.64057E-06  
   6.94875000000E+05; -9.36254E-07  ; 2.18068E-06  
   6.96562500000E+05; -5.98224E-07  ; 1.35992E-07  
   6.98250000000E+05;  8.7886E-07   ; 1.95025E-06  
   6.99937500000E+05; -7.34075E-07  ;-3.85659E-07  
   7.01625000000E+05; -1.07258E-06  ; 1.37613E-06  
   7.03312500000E+05;  6.00191E-07  ; 8.5E-08      
   7.05000000000E+05; -6.99786E-07  ; 3.62273E-06  
   7.06687500000E+05;  2.63511E-06  ; 2.78806E-07  
   7.08375000000E+05;  6.02386E-07  ;-4.62549E-07  
   7.10062500000E+05; -1.15892E-06  ; 1.32815E-06  
   7.11750000000E+05;  1.3727E-06   ; 1.55183E-06  
   7.13437500000E+05;  1.57281E-06  ;-1.0625E-07   
   7.15125000000E+05;  1.2108E-07   ; 2.2904E-06   
   7.16812500000E+05;  5.70559E-09  ; 9.76827E-07  
   7.18500000000E+05; -1.78147E-07  ; 4.07079E-07  
   7.20187500000E+05;  1.38141E-07  ; 3.62909E-06  
   7.21875000000E+05; -1.95502E-06  ; 2.84111E-06  
   7.23562500000E+05; -4.51683E-07  ; 2.18733E-07  
   7.25250000000E+05;  9.68201E-07  ; 2.67272E-06  
   7.26937500000E+05;  2.29827E-06  ; 1.3414E-06   
   7.28625000000E+05; -2.23054E-07  ; 6E-07        
   7.30312500000E+05;  2.73895E-06  ;-6.12745E-07  
   7.32000000000E+05; -3.3772E-06   ; 2.11389E-06  
   7.33687500000E+05;  2.85173E-07  ; 6.75637E-07  
   7.35375000000E+05;  5.81803E-07  ; 3.01758E-06  
   7.37062500000E+05;  3.7257E-07   ; 2.00099E-06  
   7.38750000000E+05; -6.00919E-08  ; 4.7599E-07   
   7.40437500000E+05; -2.00523E-07  ; 2.53252E-06  
   7.42125000000E+05; -1.90868E-06  ; 3.62442E-06  
   7.43812500000E+05;  7.06671E-07  ; 2.38463E-06  
   7.45500000000E+05;  5.08165E-07  ;-3.17247E-07  
   7.47187500000E+05; -8.58302E-07  ; 2.71406E-06  
   7.48875000000E+05; -1.17748E-06  ; 1.81544E-06  
   7.50562500000E+05; -8.9024E-07   ; 1.88068E-06  
   7.52250000000E+05; -2.08123E-06  ; 1.56186E-06  
   7.53937500000E+05; -1.18433E-06  ; 3.50139E-06  
   7.55625000000E+05; -2.60403E-06  ;-8.81498E-07  
   7.57312500000E+05; -2.61021E-06  ; 5.1021E-06   
   7.59000000000E+05; -8.6615E-07   ; 1.19206E-06  
   7.60687500000E+05;  6.13983E-07  ; 5.52125E-07  
   7.62375000000E+05;  1.98587E-07  ; 7.30175E-07  
   7.64062500000E+05;  1.09215E-06  ; 7.57366E-07  
   7.65750000000E+05;  4.60016E-07  ; 2.83666E-06  
   7.67437500000E+05; -1.25537E-06  ; 3.79391E-06  
   7.69125000000E+05; -2.07529E-07  ; 7.02764E-07  
   7.70812500000E+05;  1.08598E-06  ; 2.88887E-06  
   7.72500000000E+05; -1.23346E-06  ; 4.93081E-07  
   7.74187500000E+05;  1.7719E-06   ; 1.51726E-06  
   7.75875000000E+05; -1.23411E-06  ; 3.01538E-06  
   7.77562500000E+05; -9.53808E-07  ;-3.24168E-07  
   7.79250000000E+05; -2.35334E-06  ; 7.62742E-07  
   7.80937500000E+05; -4.76736E-07  ; 2.86113E-06  
   7.82625000000E+05;  9.23285E-07  ; 2.41572E-06  
   7.84312500000E+05;  9.12988E-07  ; 1.99205E-06  
   7.86000000000E+05;  9.80356E-07  ; 3.22218E-06  
   7.87687500000E+05;  2.25188E-06  ; 2.25491E-07  
   7.89375000000E+05; -8.4933E-07   ; 2.22868E-06  
   7.91062500000E+05; -5.35837E-08  ; 1.96374E-06  
   7.92750000000E+05;  1.46241E-06  ; 2.08243E-07  
   7.94437500000E+05; -1.15454E-06  ; 2.72382E-06  
   7.96125000000E+05; -6.22614E-07  ; 2.17861E-07  
   7.97812500000E+05; -1.75978E-06  ; 4.17041E-06  
   7.99500000000E+05; -2.62331E-06  ; 3.6112E-06   
   8.01187500000E+05;  1.91184E-06  ; 3.21598E-06  
   8.02875000000E+05;  1.19727E-06  ; 1.55221E-06  
   8.04562500000E+05;  1.0248E-06   ; 2.71525E-06  
   8.06250000000E+05; -7.32441E-07  ; 1.83678E-06  
   8.07937500000E+05; -1.59266E-07  ; 2.60097E-06  
   8.09625000000E+05;  1.01797E-09  ; 1.73953E-06  
   8.11312500000E+05; -1.95878E-07  ; 1.72902E-06  
   8.13000000000E+05; -1.51112E-06  ; 3.28167E-06  
   8.14687500000E+05; -1.98356E-06  ; 1.93717E-07  
   8.16375000000E+05; -4.49631E-07  ; 1.27739E-06  
   8.18062500000E+05; -3.3207E-07   ; 9.36966E-07  
   8.19750000000E+05; -1.25455E-06  ; 1.90707E-06  
   8.21437500000E+05;  2.52174E-07  ; 1.28837E-06  
   8.23125000000E+05;  5.96531E-07  ; 2.13067E-07  
   8.24812500000E+05; -1.0066E-06   ; 2.48377E-06  
   8.26500000000E+05;  1.49615E-06  ;-6.4143E-07   
   8.28187500000E+05;  1.18088E-06  ; 1.84578E-06  
   8.29875000000E+05; -3.76349E-07  ; 2.1642E-06   
   8.31562500000E+05; -1.83553E-07  ; 5.25913E-06  
   8.33250000000E+05;  3.3733E-07   ; 3.43775E-06  
   8.34937500000E+05; -1.45839E-06  ; 1.15647E-06  
   8.36625000000E+05; -1.56007E-06  ;-6.51101E-07  
   8.38312500000E+05; -2.36123E-07  ; 2.89297E-06  
   8.40000000000E+05; -4.08779E-07  ; 2.15951E-06  
   8.41687500000E+05; -7.97417E-07  ; 2.23584E-06  
   8.43375000000E+05; -1.28166E-06  ; 2.70623E-06  
   8.45062500000E+05; -5.84263E-07  ;-3.42433E-07  
   8.46750000000E+05; -1.43523E-06  ; 1.78519E-06  
   8.48437500000E+05; -1.1377E-06   ; 2.35938E-06  
   8.50125000000E+05; -5.66465E-08  ; 2.5027E-06   
   8.51812500000E+05; -4.93425E-07  ; 8.89176E-07  
   8.53500000000E+05;  1.4629E-06   ; 1.38184E-06  
   8.55187500000E+05; -3.86644E-06  ;-1.0585E-06   
   8.56875000000E+05;  2.42478E-06  ; 2.85934E-07  
   8.58562500000E+05;  6.59519E-07  ; 1.46314E-06  
   8.60250000000E+05; -1.84795E-06  ; 3.02955E-06  
   8.61937500000E+05; -1.76927E-08  ; 1.4004E-06   
   8.63625000000E+05;  5.91711E-07  ; 2.57502E-06  
   8.65312500000E+05;  2.07914E-07  ; 7.6455E-07   
   8.67000000000E+05;  2.83194E-06  ; 1.98359E-06  
   8.68687500000E+05;  8.99941E-07  ;-8.34522E-09  
   8.70375000000E+05;  3.25222E-07  ; 2.72327E-06  
   8.72062500000E+05;  1.21588E-06  ; 1.91534E-06  
   8.73750000000E+05;  1.8005E-06   ; 3.61268E-06  
   8.75437500000E+05; -9.39649E-07  ; 2.07168E-06  
   8.77125000000E+05;  1.18925E-06  ; 3.09621E-06  
   8.78812500000E+05; -8.67163E-07  ; 1.18432E-07  
   8.80500000000E+05; -8.83985E-07  ; 1.01279E-06  
   8.82187500000E+05;  6.2739E-07   ; 1.2107E-06   
   8.83875000000E+05; -1.45744E-06  ; 2.11312E-06  
   8.85562500000E+05; -2.62717E-06  ; 1.92064E-06  
   8.87250000000E+05; -1.74008E-06  ; 4.30452E-07  
   8.88937500000E+05;  1.35552E-07  ; 4.48289E-06  
   8.90625000000E+05; -2.13319E-06  ; 1.75669E-06  
   8.92312500000E+05;  8.28888E-08  ; 1.39568E-06  
   8.94000000000E+05; -3.63683E-07  ; 3.42686E-06  
   8.95687500000E+05; -2.0203E-06   ; 4.14946E-06  
   8.97375000000E+05; -1.55993E-06  ; 2.57957E-06  
   8.99062500000E+05; -6.98014E-07  ; 3.37358E-06  
   9.00750000000E+05;  1.87096E-06  ; 1.39415E-06  
   9.02437500000E+05;  5.13525E-07  ; 3.10754E-07  
   9.04125000000E+05;  1.26485E-06  ; 1.78692E-06  
   9.05812500000E+05; -1.68184E-06  ; 1.09057E-06  
   9.07500000000E+05; -1.52117E-06  ; 4.5015E-07   
   9.09187500000E+05; -1.39478E-06  ; 1.78031E-06  
   9.10875000000E+05; -2.34947E-06  ; 1.91544E-06  
   9.12562500000E+05; -3.21837E-08  ; 2.13076E-06  
   9.14250000000E+05;  3.94175E-07  ; 1.69018E-06  
   9.15937500000E+05;  1.17048E-06  ; 2.67351E-06  
   9.17625000000E+05; -2.06203E-06  ; 2.07768E-06  
   9.19312500000E+05;  3.95895E-07  ; 1.90462E-07  
   9.21000000000E+05; -7.9807E-07   ; 2.55405E-06  
   9.22687500000E+05;  2.84826E-07  ; 1.35451E-06  
   9.24375000000E+05;  3.11962E-07  ; 3.23076E-06  
   9.26062500000E+05; -9.00095E-07  ; 4.25149E-06  
   9.27750000000E+05;  6.09796E-07  ; 2.62482E-06  
   9.29437500000E+05; -1.07978E-06  ; 2.78346E-06  
   9.31125000000E+05;  1.3755E-06   ; 1.319E-06    
   9.32812500000E+05; -1.65263E-06  ; 2.36806E-06  
   9.34500000000E+05;  2.17227E-07  ; 1.7807E-06   
   9.36187500000E+05;  3.62024E-07  ; 5.19263E-06  
   9.37875000000E+05; -8.63939E-07  ; 2.63244E-06  
   9.39562500000E+05;  1.59445E-07  ; 3.00794E-06  
   9.41250000000E+05;  7.51016E-07  ; 2.25987E-06  
   9.42937500000E+05;  8.65023E-07  ; 3.66819E-06  
   9.44625000000E+05; -1.00886E-06  ; 1.72831E-06  
   9.46312500000E+05; -6.4214E-07   ; 2.15331E-06  
   9.48000000000E+05;  6.06064E-07  ; 2.6963E-06   
   9.49687500000E+05; -3.99751E-08  ; 1.70535E-06  
   9.51375000000E+05;  2.43555E-08  ; 4.17203E-06  
   9.53062500000E+05; -7.46346E-07  ; 4.60846E-06  
   9.54750000000E+05;  5.01473E-07  ; 3.35839E-06  
   9.56437500000E+05; -1.452E-06    ; 3.65365E-06  
   9.58125000000E+05; -6.37551E-08  ; 3.20564E-06  
   9.59812500000E+05; -8.37599E-07  ; 2.94663E-06  
   9.61500000000E+05; -3.9581E-07   ; 1.01244E-06  
   9.63187500000E+05; -4.47593E-07  ; 3.1862E-07   
   9.64875000000E+05;  1.21818E-08  ; 2.78555E-06  
   9.66562500000E+05;  3.96648E-07  ; 3.38464E-06  
   9.68250000000E+05; -2.76852E-06  ; 2.72798E-07  
   9.69937500000E+05; -2.09202E-06  ; 2.33867E-06  
   9.71625000000E+05; -9.34848E-07  ; 1.66512E-06  
   9.73312500000E+05;  7.66651E-08  ; 3.27419E-06  
   9.75000000000E+05;  1.54985E-06  ; 3.39655E-06  
   9.76687500000E+05; -1.10009E-06  ; 3.21788E-06  
   9.78375000000E+05; -7.42873E-07  ; 1.26955E-06  
   9.80062500000E+05;  1.16227E-06  ; 2.99209E-06  
   9.81750000000E+05;  7.62084E-08  ;-4.50927E-08  
   9.83437500000E+05;  9.00493E-07  ; 1.87633E-06  
   9.85125000000E+05;  1.04843E-06  ;-3.20468E-07  
   9.86812500000E+05; -1.39217E-06  ; 4.26661E-06  
   9.88500000000E+05; -2.39879E-07  ; 2.13787E-06  
   9.90187500000E+05; -2.79993E-06  ; 3.19624E-06  
   9.91875000000E+05;  9.40737E-07  ; 2.45507E-06  
   9.93562500000E+05; -4.04179E-07  ; 1.492E-06    
   9.95250000000E+05; -9.08348E-07  ; 2.0288E-06   
   9.96937500000E+05;  1.30229E-06  ; 4.07744E-06  
   9.98625000000E+05; -1.91533E-06  ; 2.45064E-06  
   1.00031250000E+06;  7.86825E-08  ; 1.42725E-06  
   1.00200000000E+06;  4.89131E-07  ; 1.94809E-06  
   1.00368750000E+06;  2.84728E-06  ; 1.88128E-06  
   1.00537500000E+06;  2.15532E-07  ; 1.52761E-06  
   1.00706250000E+06;  9.83897E-07  ; 3.01711E-06  
   1.00875000000E+06; -8.76941E-08  ;-1.08166E-07  
   1.01043750000E+06; -1.56694E-06  ; 2.40947E-06  
   1.01212500000E+06; -8.04541E-07  ; 1.7483E-06   
   1.01381250000E+06; -6.89307E-07  ; 2.66619E-06  
   1.01550000000E+06; -1.02439E-06  ; 5.52184E-06  
   1.01718750000E+06; -6.63808E-08  ; 2.74452E-06  
   1.01887500000E+06;  2.23713E-07  ; 3.66636E-06  
   1.02056250000E+06;  9.75801E-07  ; 1.26856E-06  
   1.02225000000E+06;  2.76015E-06  ; 3.25633E-06  
   1.02393750000E+06;  1.91667E-06  ; 2.91896E-06  
   1.02562500000E+06;  1.07431E-06  ; 1.88396E-06  
   1.02731250000E+06; -1.54929E-06  ; 3.45572E-06  
   1.02900000000E+06;  4.93436E-07  ; 1.34987E-06  
   1.03068750000E+06; -1.47196E-06  ; 2.32044E-06  
   1.03237500000E+06;  1.05387E-06  ; 2.38249E-06  
   1.03406250000E+06; -1.79979E-06  ; 3.24379E-06  
   1.03575000000E+06; -5.40489E-07  ; 1.9542E-06   
   1.03743750000E+06; -5.21151E-07  ; 2.89E-06     
   1.03912500000E+06; -1.3226E-06   ; 2.07406E-06  
   1.04081250000E+06; -1.30548E-06  ; 3.40058E-06  
   1.04250000000E+06;  1.22953E-06  ; 1.94552E-06  
   1.04418750000E+06; -5.89264E-07  ; 1.685E-06    
   1.04587500000E+06; -5.53126E-07  ; 3.19534E-06  
   1.04756250000E+06; -4.9965E-07   ; 4.392E-06    
   1.04925000000E+06;  2.84748E-07  ; 6.91976E-07  
   1.05093750000E+06;  5.91099E-07  ; 4.48201E-06  
   1.05262500000E+06; -7.25114E-07  ; 2.68324E-06  
   1.05431250000E+06; -4.83275E-07  ; 1.61578E-06  
   1.05600000000E+06;  2.0817E-07   ; 8.80441E-07  
   1.05768750000E+06; -5.89404E-07  ; 2.53047E-06  
   1.05937500000E+06;  2.21647E-07  ; 2.10678E-06  
   1.06106250000E+06; -1.52924E-07  ; 3.18174E-06  
   1.06275000000E+06; -7.83588E-07  ; 2.07447E-06  
   1.06443750000E+06; -1.1542E-06   ; 2.2805E-06   
   1.06612500000E+06; -1.15871E-06  ; 1.9035E-06   
   1.06781250000E+06; -3.2424E-06   ; 2.33638E-06  
   1.06950000000E+06; -5.24582E-07  ; 2.98219E-06  
   1.07118750000E+06; -2.05526E-06  ; 2.3E-07      
   1.07287500000E+06;  1.11944E-07  ; 2.22372E-06  
   1.07456250000E+06;  2.13839E-07  ; 1.14724E-06  
   1.07625000000E+06; -2.12924E-06  ; 2.89052E-06  
   1.07793750000E+06; -1.08427E-06  ; 9.23664E-07  
   1.07962500000E+06;  1.22117E-06  ; 1.15426E-06  
   1.08131250000E+06;  2.2235E-06   ; 6.73508E-07  
   1.08300000000E+06; -8.67006E-07  ; 2.4802E-06   
   1.08468750000E+06;  1.52301E-08  ; 2.2682E-06   
   1.08637500000E+06; -9.04476E-07  ; 3.01308E-06  
   1.08806250000E+06; -1.68284E-06  ; 1.98825E-06  
   1.08975000000E+06; -1.79091E-06  ; 1.63289E-06  
   1.09143750000E+06;  2.07797E-06  ; 1.04339E-06  
   1.09312500000E+06;  1.40369E-06  ;-6.543E-07    
   1.09481250000E+06; -7.15211E-07  ; 3.64487E-06  
   1.09650000000E+06; -6.73034E-07  ; 4.56729E-07  
   1.09818750000E+06; -7.1099E-07   ; 2.30909E-06  
   1.09987500000E+06; -1.04026E-06  ; 2.69986E-06  
   1.10156250000E+06; -4.66091E-07  ; 2.17681E-06  
   1.10325000000E+06; -9.98939E-07  ; 4.66258E-06  
   1.10493750000E+06;  7.96326E-07  ; 1.55122E-06  
   1.10662500000E+06; -1.24402E-06  ; 1.46557E-06  
   1.10831250000E+06; -7.43824E-07  ; 2.23778E-06  
   1.11000000000E+06; -5.17938E-07  ; 3.43702E-06  
   1.11168750000E+06;  8.05818E-07  ; 3.36477E-06  
   1.11337500000E+06; -1.64736E-06  ; 5.82166E-06  
   1.11506250000E+06; -4.25585E-07  ; 1.66495E-06  
   1.11675000000E+06; -1.99385E-06  ; 3.62011E-06  
   1.11843750000E+06; -3.05718E-06  ; 2.76796E-06  
   1.12012500000E+06; -2.67614E-07  ; 4.37417E-06  
   1.12181250000E+06; -2.32206E-06  ; 3.70621E-06  
   1.12350000000E+06; -1.63814E-06  ; 2.52824E-06  
   1.12518750000E+06;  5.58322E-07  ; 1.94278E-06  
   1.12687500000E+06;  1.72207E-08  ; 2.96203E-06  
   1.12856250000E+06; -1.39072E-07  ; 1.66198E-06  
   1.13025000000E+06; -3.15896E-07  ; 3.16061E-06  
   1.13193750000E+06; -2.08865E-07  ; 4.44486E-06  
   1.13362500000E+06; -3.1106E-07   ; 1.11817E-06  
   1.13531250000E+06;  2.28673E-06  ; 1.61557E-06  
   1.13700000000E+06; -1.06485E-06  ; 3.71543E-06  
   1.13868750000E+06; -1.27496E-06  ; 4.46004E-06  
   1.14037500000E+06; -7.73144E-07  ; 1.1386E-06   
   1.14206250000E+06; -1.07827E-06  ; 2.93712E-06  
   1.14375000000E+06; -9.22462E-07  ; 1.76696E-06  
   1.14543750000E+06; -2.16007E-06  ; 4.8312E-06   
   1.14712500000E+06; -1.0278E-06   ; 2.34923E-06  
   1.14881250000E+06;  5.9466E-07   ; 2.40632E-06  
   1.15050000000E+06; -1.43022E-06  ; 1.95296E-06  
   1.15218750000E+06; -1.76559E-06  ; 4.38076E-06  
   1.15387500000E+06; -4.36259E-07  ; 8.34128E-07  
   1.15556250000E+06;  7.58487E-07  ; 3.12809E-06  
   1.15725000000E+06; -6.13646E-07  ; 3.55792E-06  
   1.15893750000E+06;  1.1019E-06   ; 8.33274E-07  
   1.16062500000E+06;  6.31703E-07  ; 1.73773E-06  
   1.16231250000E+06;  1.03493E-06  ; 2.22109E-06  
   1.16400000000E+06; -5.06607E-07  ; 4.23159E-06  
   1.16568750000E+06; -1.53148E-06  ; 4.78676E-06  
   1.16737500000E+06; -1.58488E-06  ; 2.56534E-06  
   1.16906250000E+06;  6.56086E-08  ; 4.74855E-06  
   1.17075000000E+06;  1.15376E-06  ; 4.13627E-06  
   1.17243750000E+06; -3.93751E-07  ; 2.2517E-06   
   1.17412500000E+06;  1.27282E-06  ; 3.94395E-06  
   1.17581250000E+06;  2.04813E-06  ; 1.47863E-06  
   1.17750000000E+06;  5.75952E-07  ; 3.9568E-06   
   1.17918750000E+06;  3.41215E-07  ; 2.32492E-06  
   1.18087500000E+06; -3.54363E-07  ; 1.27087E-06  
   1.18256250000E+06; -2.2711E-06   ; 1.7053E-06   
   1.18425000000E+06; -2.19977E-06  ; 2.02835E-06  
   1.18593750000E+06; -1.37843E-06  ; 4.31563E-06  
   1.18762500000E+06; -2.10573E-06  ; 2.17475E-06  
   1.18931250000E+06; -1.75712E-06  ; 2.0478E-06   
   1.19100000000E+06;  3.38956E-07  ; 3.51416E-06  
   1.19268750000E+06; -7.97253E-07  ; 3.07468E-06  
   1.19437500000E+06; -6.65302E-07  ; 4.12778E-06  
   1.19606250000E+06; -6.2865E-07   ; 8.66844E-07  
   1.19775000000E+06; -7.20934E-07  ; 3.40913E-06  
   1.19943750000E+06; -1.31809E-06  ; 2.59122E-06  
   1.20112500000E+06;  1.25339E-07  ; 2.54436E-06  
   1.20281250000E+06; -5.19476E-07  ; 5.63542E-07  
   1.20450000000E+06; -9.00399E-07  ; 5.0716E-06   
   1.20618750000E+06;  2.99032E-07  ; 3.95555E-06  
   1.20787500000E+06; -1.76845E-06  ; 2.04831E-06  
   1.20956250000E+06;  1.22088E-06  ; 2.30419E-06  
   1.21125000000E+06; -1.42728E-06  ; 3.60889E-06  
   1.21293750000E+06; -1.39745E-06  ; 2.88654E-06  
   1.21462500000E+06;  1.76925E-06  ; 3.03049E-06  
   1.21631250000E+06; -3.41468E-07  ; 3.31794E-06  
   1.21800000000E+06; -1.46076E-06  ; 3.6338E-06   
   1.21968750000E+06;  1.49379E-06  ; 7.57758E-07  
   1.22137500000E+06; -1.46831E-06  ; 1.12417E-06  
   1.22306250000E+06;  8.99567E-07  ; 3.77009E-06  
   1.22475000000E+06; -2.12361E-06  ; 4.17583E-06  
   1.22643750000E+06; -1.93624E-06  ; 4.21717E-06  
   1.22812500000E+06; -5.26002E-07  ; 3.22319E-06  
   1.22981250000E+06; -3.53788E-07  ; 1.44939E-06  
   1.23150000000E+06;  1.0969E-06   ; 4.22924E-06  
   1.23318750000E+06; -1.90174E-06  ; 2.67245E-06  
   1.23487500000E+06; -2.07073E-06  ; 3.08629E-06  
   1.23656250000E+06;  7.09262E-07  ; 1.17856E-06  
   1.23825000000E+06; -1.93736E-06  ; 2.49668E-06  
   1.23993750000E+06;  6.75087E-07  ; 3.75053E-06  
   1.24162500000E+06; -1.84625E-06  ; 3.73574E-06  
   1.24331250000E+06;  6.54903E-07  ; 2.46816E-06  
   1.24500000000E+06; -1.9313E-07   ; 5.97536E-06  
   1.24668750000E+06;  2.25618E-07  ; 4.20905E-08  
   1.24837500000E+06;  3.15519E-07  ; 2.10342E-06  
   1.25006250000E+06;  3.80355E-07  ; 3.6878E-06   
   1.25175000000E+06; -6.61085E-07  ; 2.72598E-06  
   1.25343750000E+06; -1.38271E-06  ; 2.1034E-06   
   1.25512500000E+06;  1.40855E-06  ; 2.56233E-06  
   1.25681250000E+06; -1.40295E-06  ; 2.57799E-06  
   1.25850000000E+06; -2.53757E-06  ; 5.88111E-07  
   1.26018750000E+06;  2.39461E-06  ; 2.98601E-06  
   1.26187500000E+06; -1.58179E-06  ; 7.76448E-07  
   1.26356250000E+06; -1.5629E-06   ; 2.486E-06    
   1.26525000000E+06;  8.10794E-08  ; 4.89686E-06  
   1.26693750000E+06; -1.60852E-06  ; 2.50153E-06  
   1.26862500000E+06; -1.63353E-06  ; 4.25728E-06  
   1.27031250000E+06;  1.35822E-07  ; 1.88824E-06  
   1.27200000000E+06; -3.3228E-07   ; 1.85162E-06  
   1.27368750000E+06; -2.28376E-06  ; 1.31028E-06  
   1.27537500000E+06; -3.67532E-06  ; 3.95183E-06  
   1.27706250000E+06; -1.72267E-06  ; 6.66351E-06  
   1.27875000000E+06; -9.64674E-08  ; 1.45972E-06  
   1.28043750000E+06; -1.01988E-06  ; 4.35156E-06  
   1.28212500000E+06; -1.95536E-06  ; 4.51603E-06  
   1.28381250000E+06; -2.30072E-06  ; 1.69066E-06  
   1.28550000000E+06; -1.16291E-07  ; 1.52447E-06  
   1.28718750000E+06; -2.36104E-07  ; 2.24183E-06  
   1.28887500000E+06;  7.82835E-07  ; 3.24619E-06  
   1.29056250000E+06;  2.30116E-06  ; 4.32154E-06  
   1.29225000000E+06;  5.75219E-07  ; 1.58937E-06  
   1.29393750000E+06; -2.09416E-06  ; 4.64315E-06  
   1.29562500000E+06;  2.40846E-08  ; 3.71567E-06  
   1.29731250000E+06;  8.36028E-07  ; 3.8736E-06   
   1.29900000000E+06; -2.41495E-06  ; 2.18952E-06  
   1.30068750000E+06; -1.57776E-06  ; 2.36568E-06  
   1.30237500000E+06;  7.21752E-08  ; 3.79016E-06  
   1.30406250000E+06; -3.69264E-07  ; 2.3011E-06   
   1.30575000000E+06; -2.43617E-06  ; 1.74089E-06  
   1.30743750000E+06; -1.31907E-07  ; 4.23551E-06  
   1.30912500000E+06; -5.76416E-07  ; 4.85962E-06  
   1.31081250000E+06;  1.02123E-06  ; 3.5943E-06   
   1.31250000000E+06; -7.7217E-07   ; 2.42526E-06  
   1.31418750000E+06; -1.60391E-06  ; 1.98499E-06  
   1.31587500000E+06;  2.10226E-06  ; 2.86576E-06  
   1.31756250000E+06; -1.82907E-06  ; 2.15075E-06  
   1.31925000000E+06; -2.09903E-06  ;-8.33251E-08  
   1.32093750000E+06; -1.92641E-06  ; 3.41079E-06  
   1.32262500000E+06; -4.8551E-07   ; 2.21536E-06  
   1.32431250000E+06; -9.37676E-07  ; 2.32925E-06  
   1.32600000000E+06; -1.16522E-06  ; 3.14069E-06  
   1.32768750000E+06;  4.67684E-07  ; 4.92999E-06  
   1.32937500000E+06;  1.50203E-07  ; 1.30782E-06  
   1.33106250000E+06;  6.54441E-07  ; 5.27068E-06  
   1.33275000000E+06; -1.4693E-06   ; 3.80343E-06  
   1.33443750000E+06; -7.17168E-07  ; 3.17856E-06  
   1.33612500000E+06;  1.99322E-07  ; 4.3595E-06   
   1.33781250000E+06; -2.25485E-07  ; 2.53019E-06  
   1.33950000000E+06; -1.97699E-06  ; 2.50666E-06  
   1.34118750000E+06;  9.07758E-07  ; 4.00694E-06  
   1.34287500000E+06; -9.80674E-07  ; 2.32011E-06  
   1.34456250000E+06; -1.53637E-07  ; 2.57715E-06  
   1.34625000000E+06; -2.80125E-06  ; 4.91915E-06  
   1.34793750000E+06; -1.03717E-06  ; 1.70435E-06  
   1.34962500000E+06; -8.86688E-07  ; 1.82346E-06  
   1.35131250000E+06;  2.70178E-06  ; 2.09149E-06  
   1.35300000000E+06;  9.28496E-09  ; 4.0662E-06   
   1.35468750000E+06;  1.11482E-06  ; 1.52272E-06  
   1.35637500000E+06;  1.78467E-07  ; 3.35476E-06  
   1.35806250000E+06;  1.35058E-06  ; 3.84481E-06  
   1.35975000000E+06;  3.06416E-07  ; 3.69932E-06  
   1.36143750000E+06;  1.3383E-06   ; 2.47363E-06  
   1.36312500000E+06;  8.88509E-07  ; 2.1412E-06   
   1.36481250000E+06;  1.57645E-06  ; 3.57653E-06  
   1.36650000000E+06; -2.65024E-06  ; 5.62109E-06  
   1.36818750000E+06; -8.29292E-07  ; 5.94971E-06  
   1.36987500000E+06; -2.45083E-06  ; 3.58077E-06  
   1.37156250000E+06; -6.27899E-07  ; 2.55271E-06  
   1.37325000000E+06; -1.73988E-06  ; 1.28246E-06  
   1.37493750000E+06; -7.6167E-07   ; 3.30142E-06  
   1.37662500000E+06; -2.28565E-06  ; 2.37347E-06  
   1.37831250000E+06; -2.16577E-06  ; 3.72135E-06  
   1.38000000000E+06;  7.67575E-07  ; 6.09705E-06  
   1.38168750000E+06; -4.20042E-07  ; 2.36396E-06  
   1.38337500000E+06; -1.49887E-06  ; 2.77817E-06  
   1.38506250000E+06; -1.13958E-06  ; 2.22531E-06  
   1.38675000000E+06; -1.81857E-06  ; 2.68552E-06  
   1.38843750000E+06; -1.48958E-06  ; 2.85619E-06  
   1.39012500000E+06; -1.40103E-06  ; 2.43815E-06  
   1.39181250000E+06;  9.60118E-07  ; 3.67521E-06  
   1.39350000000E+06;  5.28439E-07  ; 1.87131E-06  
   1.39518750000E+06; -9.3637E-07   ; 4.47774E-06  
   1.39687500000E+06; -1.59731E-07  ; 7.66472E-07  
   1.39856250000E+06; -1.51301E-08  ; 3.17179E-06  
   1.40025000000E+06;  3.56064E-08  ; 2.80919E-06  
   1.40193750000E+06;  4.89771E-08  ; 3.27733E-06  
   1.40362500000E+06; -6.72998E-08  ; 2.89246E-06  
   1.40531250000E+06; -2.13855E-06  ; 3.26986E-06  
   1.40700000000E+06; -1.14013E-06  ; 3.04465E-06  
   1.40868750000E+06; -1.23754E-06  ; 3.55062E-06  
   1.41037500000E+06;  1.30549E-06  ; 3.85706E-06  
   1.41206250000E+06; -2.47644E-06  ; 3.4079E-06   
   1.41375000000E+06; -2.36906E-08  ; 2.71951E-06  
   1.41543750000E+06; -3.13227E-07  ; 3.17735E-06  
   1.41712500000E+06; -1.11975E-06  ; 2.11895E-06  
   1.41881250000E+06; -6.74628E-07  ; 5.53632E-06  
   1.42050000000E+06; -1.06113E-06  ; 1.87865E-06  
   1.42218750000E+06; -1.21054E-06  ; 1.87958E-06  
   1.42387500000E+06; -7.57304E-07  ; 2.54703E-06  
   1.42556250000E+06;  6.89991E-08  ; 4.15589E-06  
   1.42725000000E+06; -7.44266E-07  ; 4.65181E-06  
   1.42893750000E+06; -5.12071E-07  ; 2.65162E-06  
   1.43062500000E+06; -3.81814E-07  ; 1.849E-06    
   1.43231250000E+06; -1.09377E-07  ; 3.44582E-06  
   1.43400000000E+06; -7.74168E-07  ; 4.19943E-06  
   1.43568750000E+06;  1.55323E-06  ; 1.69806E-06  
   1.43737500000E+06; -1.7003E-06   ; 3.4993E-06   
   1.43906250000E+06; -7.40619E-07  ; 3.23541E-06  
   1.44075000000E+06; -1.90005E-06  ; 4.85885E-06  
   1.44243750000E+06; -1.98374E-06  ; 3.73016E-06  
   1.44412500000E+06; -7.94518E-07  ; 5.52913E-06  
   1.44581250000E+06; -9.51672E-07  ; 3.55904E-06  
   1.44750000000E+06; -1.80201E-06  ; 3.80901E-06  
   1.44918750000E+06;  4.24475E-07  ; 4.99848E-06  
   1.45087500000E+06; -1.17808E-06  ; 4.65101E-06  
   1.45256250000E+06; -1.31649E-06  ; 3.85859E-06  
   1.45425000000E+06; -6.79845E-08  ; 3.45433E-06  
   1.45593750000E+06;  2.69931E-08  ; 2.96363E-06  
   1.45762500000E+06; -2.62663E-06  ; 1.69647E-06  
   1.45931250000E+06;  1.37603E-06  ; 3.63532E-06  
   1.46100000000E+06; -8.10517E-07  ; 3.95981E-06  
   1.46268750000E+06; -2.59486E-07  ; 3.80842E-06  
   1.46437500000E+06; -1.47875E-06  ; 5.65502E-06  
   1.46606250000E+06;  6.25521E-07  ; 4.86287E-06  
   1.46775000000E+06; -1.29488E-06  ; 4.19267E-06  
   1.46943750000E+06; -1.68036E-06  ; 2.49793E-06  
   1.47112500000E+06; -9.32017E-07  ; 3.0947E-06   
   1.47281250000E+06; -2.07963E-06  ; 3.66468E-07  
   1.47450000000E+06; -8.12431E-07  ; 2.85592E-06  
   1.47618750000E+06; -1.26417E-06  ; 3.7552E-06   
   1.47787500000E+06; -3.5134E-07   ; 3.08129E-06  
   1.47956250000E+06;  1.86163E-06  ; 3.78994E-06  
   1.48125000000E+06; -1.90088E-07  ; 4.72582E-06  
   1.48293750000E+06;  1.71606E-07  ; 5.4821E-06   
   1.48462500000E+06; -2.47711E-06  ; 2.42585E-06  
   1.48631250000E+06; -1.31787E-06  ; 4.35129E-06  
   1.48800000000E+06; -1.79616E-06  ; 3.37994E-06  
   1.48968750000E+06; -2.6667E-07   ; 3.78587E-06  
   1.49137500000E+06; -1.12588E-06  ; 1.16701E-06  
   1.49306250000E+06; -1.39083E-06  ; 2.10598E-06  
   1.49475000000E+06; -1.76772E-06  ; 1.66279E-06  
   1.49643750000E+06;  1.33447E-06  ; 2.78083E-06  
   1.49812500000E+06; -1.02421E-06  ; 4.55766E-06  
   1.49981250000E+06;  5.29204E-07  ; 4.48798E-06  
   1.50150000000E+06;  2.7573E-06   ; 3.04235E-06  
   1.50318750000E+06;  1.6102E-06   ; 5.3767E-06   
   1.50487500000E+06; -1.20871E-06  ; 2.44939E-06  
   1.50656250000E+06; -1.31878E-06  ; 2.53383E-06  
   1.50825000000E+06; -4.05505E-07  ; 3.7364E-06   
   1.50993750000E+06;  7.57518E-07  ; 3.63993E-06  
   1.51162500000E+06; -3.29143E-07  ; 3.54686E-06  
   1.51331250000E+06; -4.37509E-07  ; 3.74323E-06  
   1.51500000000E+06; -6.32709E-07  ; 4.59865E-06  
   1.51668750000E+06; -1.3888E-06   ; 4.36493E-06  
   1.51837500000E+06; -5.17159E-07  ; 4.30178E-06  
   1.52006250000E+06; -1.65827E-06  ; 3.94277E-06  
   1.52175000000E+06; -2.2581E-06   ; 3.0182E-06   
   1.52343750000E+06;  7.23839E-07  ; 2.15119E-06  
   1.52512500000E+06; -1.61555E-06  ; 3.36123E-06  
   1.52681250000E+06; -4.757E-07    ; 4.74274E-06  
   1.52850000000E+06; -1.16963E-06  ; 2.50685E-06  
   1.53018750000E+06; -2.17164E-06  ; 4.67278E-06  
   1.53187500000E+06;  7.46627E-07  ; 6.54321E-06  
   1.53356250000E+06; -8.9077E-07   ; 5.55065E-06  
   1.53525000000E+06; -1.68939E-06  ; 4.52124E-06  
   1.53693750000E+06; -6.61126E-07  ; 1.64414E-06  
   1.53862500000E+06;  7.73963E-07  ; 2.94287E-06  
   1.54031250000E+06; -2.06311E-06  ; 2.04306E-06  
   1.54200000000E+06;  2.1808E-07   ; 8.55864E-07  
   1.54368750000E+06;  1.60633E-06  ; 1.76865E-06  
   1.54537500000E+06; -2.93285E-06  ; 4.17141E-06  
   1.54706250000E+06; -2.32202E-06  ; 3.72447E-06  
   1.54875000000E+06; -2.01434E-06  ; 3.74825E-06  
   1.55043750000E+06; -1.06681E-06  ; 3.00585E-06  
   1.55212500000E+06; -4.85652E-07  ; 5.54652E-07  
   1.55381250000E+06;  3.70115E-07  ; 3.03193E-06  
   1.55550000000E+06;  3.49252E-06  ; 2.37223E-06  
   1.55718750000E+06; -1.49048E-06  ; 5.04473E-06  
   1.55887500000E+06; -1.42582E-07  ; 4.52649E-06  
   1.56056250000E+06; -8.30533E-08  ; 4.88339E-06  
   1.56225000000E+06; -3.07144E-07  ; 4.57546E-06  
   1.56393750000E+06; -1.91892E-06  ; 3.27685E-06  
   1.56562500000E+06; -1.79453E-06  ; 2.61954E-06  
   1.56731250000E+06; -5.42103E-07  ; 3.82904E-06  
   1.56900000000E+06;  1.38459E-06  ; 5.19168E-06  
   1.57068750000E+06; -2.291E-06    ; 5.53225E-06  
   1.57237500000E+06; -8.07739E-07  ; 4.44409E-06  
   1.57406250000E+06; -2.44742E-07  ; 4.79396E-06  
   1.57575000000E+06;  5.85218E-07  ; 4.39773E-06  
   1.57743750000E+06; -7.13354E-08  ; 2.89999E-06  
   1.57912500000E+06;  5.60926E-08  ; 4.54617E-06  
   1.58081250000E+06;  1.64982E-07  ; 4.31656E-06  
   1.58250000000E+06;  2.01203E-06  ; 2.60783E-06  
   1.58418750000E+06; -1.56495E-06  ; 2.56145E-06  
   1.58587500000E+06; -1.19935E-06  ; 4.31387E-06  
   1.58756250000E+06; -2.10575E-06  ; 2.90103E-06  
   1.58925000000E+06;  1.04661E-06  ; 1.78379E-06  
   1.59093750000E+06; -2.92074E-06  ; 3.22315E-06  
   1.59262500000E+06; -8.17125E-07  ; 3.73672E-06  
   1.59431250000E+06;  1.47114E-06  ; 2.15239E-06  
   1.59600000000E+06;  3.5066E-07   ; 3.95315E-06  
   1.59768750000E+06; -2.97189E-07  ; 5.87873E-06  
   1.59937500000E+06; -8.4024E-07   ; 3.51017E-06  
   1.60106250000E+06; -1.6039E-06   ; 3.20008E-06  
   1.60275000000E+06; -3.21698E-08  ; 4.1759E-06   
   1.60443750000E+06; -1.50142E-06  ; 2.90284E-06  
   1.60612500000E+06; -9.99055E-07  ; 3.95738E-06  
   1.60781250000E+06; -9.54409E-07  ; 5.23763E-06  
   1.60950000000E+06; -1.49058E-06  ; 2.48325E-06  
   1.61118750000E+06;  5.5624E-07   ; 3.73748E-06  
   1.61287500000E+06; -7.55725E-07  ; 3.95235E-06  
   1.61456250000E+06; -4.56346E-07  ; 3.65127E-06  
   1.61625000000E+06; -2.23384E-06  ; 3.99628E-06  
   1.61793750000E+06;  4.26639E-07  ; 1.54002E-06  
   1.61962500000E+06;  8.71621E-07  ; 3.26809E-06  
   1.62131250000E+06; -1.10268E-06  ; 2.56415E-06  
   1.62300000000E+06; -1.10837E-06  ; 4.20803E-06  
   1.62468750000E+06;  1.06509E-06  ; 2.40408E-06  
   1.62637500000E+06; -6.95252E-08  ; 4.67884E-06  
   1.62806250000E+06; -1.24646E-06  ; 3.89751E-06  
   1.62975000000E+06;  4.94253E-07  ; 3.72732E-06  
   1.63143750000E+06; -6.34948E-07  ; 4.44102E-06  
   1.63312500000E+06; -2.11436E-06  ; 3.73788E-06  
   1.63481250000E+06; -1.06896E-06  ; 3.60079E-06  
   1.63650000000E+06;  4.07827E-07  ; 4.58832E-06  
   1.63818750000E+06; -6.58338E-07  ; 3.19493E-06  
   1.63987500000E+06;  9.01429E-08  ; 2.26692E-06  
   1.64156250000E+06;  1.28059E-06  ; 4.58598E-06  
   1.64325000000E+06; -1.11209E-06  ; 3.23377E-06  
   1.64493750000E+06; -1.64118E-06  ; 4.12492E-06  
   1.64662500000E+06; -4.12012E-07  ; 4.97362E-06  
   1.64831250000E+06; -6.16163E-07  ; 1.60965E-06  
   1.65000000000E+06;  8.8841E-07   ; 2.28903E-06  
   1.65168750000E+06; -1.32331E-06  ; 3.60214E-06  
   1.65337500000E+06; -2.85899E-06  ; 5.00871E-06  
   1.65506250000E+06; -1.23732E-06  ; 5.73381E-06  
   1.65675000000E+06; -6.29433E-07  ; 4.21784E-06  
   1.65843750000E+06; -7.14138E-07  ; 4.01803E-06  
   1.66012500000E+06; -1.13038E-06  ; 6.56086E-06  
   1.66181250000E+06;  5.98119E-07  ; 3.90131E-06  
   1.66350000000E+06;  1.42767E-07  ; 6.42463E-06  
   1.66518750000E+06; -3.20577E-06  ; 2.49332E-06  
   1.66687500000E+06; -2.06494E-07  ; 3.80155E-06  
   1.66856250000E+06; -2.44094E-07  ; 3.78018E-06  
   1.67025000000E+06; -5.08064E-07  ; 4.92437E-06  
   1.67193750000E+06;  3.3563E-07   ; 6.45619E-06  
   1.67362500000E+06;  3.43908E-07  ; 4.53306E-06  
   1.67531250000E+06; -3.33033E-06  ; 2.24498E-06  
   1.67700000000E+06; -8.62949E-07  ; 3.31144E-06  
   1.67868750000E+06; -6.98809E-07  ; 5.23605E-06  
   1.68037500000E+06;  1.70473E-08  ; 3.47921E-06  
   1.68206250000E+06; -1.93351E-06  ; 3.37338E-06  
   1.68375000000E+06;  5.12326E-07  ; 5.6519E-06   
   1.68543750000E+06; -2.14511E-07  ; 4.31627E-06  
   1.68712500000E+06;  7.89937E-07  ; 3.17925E-06  
   1.68881250000E+06;  4.27441E-08  ; 3.84118E-06  
   1.69050000000E+06; -1.12664E-06  ; 5.86044E-06  
   1.69218750000E+06; -2.96035E-06  ; 5.76445E-06  
   1.69387500000E+06; -3.20132E-06  ; 4.88911E-06  
   1.69556250000E+06;  2.3161E-07   ; 2.61159E-06  
   1.69725000000E+06;  1.21117E-06  ; 4.18474E-06  
   1.69893750000E+06; -6.14708E-07  ; 3.16101E-06  
   1.70062500000E+06; -2.3125E-06   ; 6.90503E-06  
   1.70231250000E+06; -3.62236E-06  ; 2.42883E-06  
   1.70400000000E+06; -6.24648E-07  ; 2.13859E-06  
   1.70568750000E+06; -1.49491E-06  ; 3.92743E-06  
   1.70737500000E+06; -1.39474E-06  ; 4.64764E-06  
   1.70906250000E+06; -7.75656E-07  ; 3.47728E-06  
   1.71075000000E+06; -1.78444E-06  ; 3.32501E-06  
   1.71243750000E+06; -1.08086E-06  ; 3.92954E-06  
   1.71412500000E+06; -2.78511E-06  ; 6.12796E-06  
   1.71581250000E+06; -1.69194E-06  ; 4.17889E-06  
   1.71750000000E+06; -1.44417E-06  ; 2.06955E-06  
   1.71918750000E+06;  7.51822E-07  ; 3.63247E-06  
   1.72087500000E+06; -1.77778E-06  ; 3.60647E-06  
   1.72256250000E+06; -1.10558E-06  ; 2.76758E-06  
   1.72425000000E+06;  5.79121E-07  ; 2.63875E-06  
   1.72593750000E+06; -2.26288E-06  ; 2.59438E-06  
   1.72762500000E+06; -1.45846E-06  ; 2.93048E-06  
   1.72931250000E+06; -2.34857E-06  ; 4.36177E-06  
   1.73100000000E+06; -1.58036E-06  ; 2.94219E-06  
   1.73268750000E+06; -2.1942E-06   ; 6.09376E-06  
   1.73437500000E+06; -1.07348E-06  ; 3.64676E-06  
   1.73606250000E+06; -2.11597E-06  ; 4.77565E-06  
   1.73775000000E+06; -7.93836E-07  ; 4.3788E-06   
   1.73943750000E+06; -1.86426E-07  ; 4.65008E-06  
   1.74112500000E+06;  7.05343E-07  ; 3.35993E-06  
   1.74281250000E+06; -2.19137E-06  ; 4.24989E-06  
   1.74450000000E+06; -1.19504E-06  ; 4.51382E-06  
   1.74618750000E+06;  1.58062E-06  ; 3.02286E-06  
   1.74787500000E+06; -2.34663E-06  ; 5.33349E-06  
   1.74956250000E+06; -4.5822E-07   ; 5.11017E-06  
   1.75125000000E+06;  2.11137E-07  ; 2.59308E-06  
   1.75293750000E+06;  5.34508E-07  ; 1.92156E-06  
   1.75462500000E+06; -1.71972E-06  ; 5.19379E-06  
   1.75631250000E+06; -1.7899E-06   ; 5.53189E-06  
   1.75800000000E+06;  1.22021E-06  ; 6.43895E-06  
   1.75968750000E+06; -1.6803E-06   ; 6.44171E-06  
   1.76137500000E+06; -8.37778E-07  ; 4.09577E-06  
   1.76306250000E+06; -1.96829E-06  ; 2.49785E-06  
   1.76475000000E+06;  8.12954E-07  ; 7.26271E-06  
   1.76643750000E+06; -8.85174E-07  ; 4.04812E-06  
   1.76812500000E+06; -2.08889E-06  ; 3.52516E-06  
   1.76981250000E+06; -1.67301E-06  ; 4.71835E-06  
   1.77150000000E+06; -1.821E-06    ; 4.57976E-06  
   1.77318750000E+06; -1.49109E-06  ; 3.91889E-06  
   1.77487500000E+06;  9.96132E-07  ; 4.75569E-06  
   1.77656250000E+06;  1.68214E-07  ; 4.06283E-06  
   1.77825000000E+06; -2.29341E-06  ; 3.96881E-06  
   1.77993750000E+06; -1.37586E-06  ; 3.63379E-06  
   1.78162500000E+06; -4.33785E-07  ; 4.02558E-06  
   1.78331250000E+06; -2.80843E-06  ; 4.67508E-06  
   1.78500000000E+06;  1.50098E-06  ; 6.47661E-06  
   1.78668750000E+06; -1.30124E-06  ; 6.20369E-06  
   1.78837500000E+06;  8.81869E-08  ; 4.99934E-06  
   1.79006250000E+06; -2.57706E-06  ; 2.93703E-06  
   1.79175000000E+06;  2.09464E-07  ; 4.18219E-06  
   1.79343750000E+06; -1.9846E-06   ; 3.47954E-06  
   1.79512500000E+06; -2.49806E-06  ; 4.1281E-06   
   1.79681250000E+06;  1.91705E-07  ; 3.59007E-06  
   1.79850000000E+06; -1.60082E-06  ; 5.61965E-06  
   1.80018750000E+06; -6.62476E-07  ; 6.137E-06    
   1.80187500000E+06; -2.68499E-06  ; 3.68451E-06  
   1.80356250000E+06; -8.83341E-07  ; 4.66162E-06  
   1.80525000000E+06; -2.09176E-06  ; 6.59861E-06  
   1.80693750000E+06; -2.19323E-06  ; 2.95773E-06  
   1.80862500000E+06; -1.97754E-06  ; 4.43806E-06  
   1.81031250000E+06; -1.25156E-06  ; 2.52614E-06  
   1.81200000000E+06; -2.19579E-08  ; 3.62119E-06  
   1.81368750000E+06; -1.57883E-06  ; 3.68474E-06  
   1.81537500000E+06; -1.42229E-06  ; 4.45132E-06  
   1.81706250000E+06; -1.23815E-06  ; 9.39636E-07  
   1.81875000000E+06;  8.70021E-07  ; 7.31242E-06  
   1.82043750000E+06; -1.47321E-06  ; 4.83399E-06  
   1.82212500000E+06; -1.76754E-06  ; 2.91194E-06  
   1.82381250000E+06; -2.20394E-06  ; 2.36621E-06  
   1.82550000000E+06; -2.44704E-06  ; 3.29029E-06  
   1.82718750000E+06;  5.92353E-09  ; 3.28765E-06  
   1.82887500000E+06; -2.23463E-06  ; 1.82694E-06  
   1.83056250000E+06; -6.4138E-08   ; 4.73048E-06  
   1.83225000000E+06;  3.36028E-08  ; 3.72175E-06  
   1.83393750000E+06; -2.5739E-06   ; 4.55337E-06  
   1.83562500000E+06; -1.0102E-06   ; 3.79152E-06  
   1.83731250000E+06; -2.58022E-06  ; 2.45859E-06  
   1.83900000000E+06;  2.56278E-07  ; 3.92157E-06  
   1.84068750000E+06; -2.20271E-06  ; 3.06122E-06  
   1.84237500000E+06;  7.26025E-08  ; 6.51711E-06  
   1.84406250000E+06;  6.29183E-07  ; 4.32741E-06  
   1.84575000000E+06; -1.85545E-06  ; 3.37715E-06  
   1.84743750000E+06; -6.35814E-07  ; 4.02974E-06  
   1.84912500000E+06; -5.83074E-07  ; 5.39505E-06  
   1.85081250000E+06; -1.1463E-06   ; 4.40246E-06  
   1.85250000000E+06; -2.33889E-06  ; 3.78746E-06  
   1.85418750000E+06;  4.07464E-07  ; 3.51665E-06  
   1.85587500000E+06; -2.14626E-07  ; 5.45454E-06  
   1.85756250000E+06;  2.46292E-07  ; 4.594E-06    
   1.85925000000E+06; -1.27001E-06  ; 2.53087E-06  
   1.86093750000E+06;  5.51122E-08  ; 3.80605E-06  
   1.86262500000E+06; -1.15387E-06  ; 4.71436E-06  
   1.86431250000E+06; -6.35204E-08  ; 2.49551E-06  
   1.86600000000E+06; -1.67613E-06  ; 2.40467E-06  
   1.86768750000E+06; -1.89035E-06  ; 5.21588E-06  
   1.86937500000E+06; -1.03288E-06  ; 4.31315E-06  
   1.87106250000E+06; -1.64364E-06  ; 4.77652E-06  
   1.87275000000E+06; -1.93305E-06  ; 4.66501E-06  
   1.87443750000E+06; -3.56907E-07  ; 4.25008E-06  
   1.87612500000E+06; -3.1101E-06   ; 5.38865E-06  
   1.87781250000E+06;  5.66781E-08  ; 3.79366E-06  
   1.87950000000E+06; -1.23208E-06  ; 4.73027E-06  
   1.88118750000E+06; -7.65236E-07  ; 2.354E-06    
   1.88287500000E+06; -1.63153E-07  ; 3.07605E-06  
   1.88456250000E+06; -4.47217E-07  ; 4.93446E-06  
   1.88625000000E+06; -1.04173E-07  ; 3.52814E-06  
   1.88793750000E+06; -2.79697E-06  ; 4.27959E-06  
   1.88962500000E+06; -2.2417E-06   ; 3.43693E-06  
   1.89131250000E+06; -2.7081E-07   ; 2.61018E-06  
   1.89300000000E+06; -2.01841E-06  ; 3.7488E-06   
   1.89468750000E+06; -4.6643E-06   ; 4.70975E-06  
   1.89637500000E+06; -7.65561E-08  ; 4.1162E-06   
   1.89806250000E+06; -3.95607E-07  ; 3.88829E-06  
   1.89975000000E+06; -2.13448E-06  ; 5.25368E-06  
   1.90143750000E+06; -2.15853E-06  ; 4.77479E-06  
   1.90312500000E+06;  6.13969E-07  ; 4.46917E-06  
   1.90481250000E+06; -2.21158E-07  ; 5.86191E-06  
   1.90650000000E+06;  1.74925E-07  ; 3.28526E-06  
   1.90818750000E+06; -4.42558E-07  ; 3.11487E-06  
   1.90987500000E+06; -2.42402E-06  ; 5.0804E-06   
   1.91156250000E+06; -2.0243E-06   ; 3.76208E-06  
   1.91325000000E+06;  6.18059E-08  ; 5.75898E-06  
   1.91493750000E+06; -3.47932E-06  ; 3.12108E-06  
   1.91662500000E+06; -1.10276E-06  ; 4.64934E-06  
   1.91831250000E+06; -8.55726E-07  ; 5.11814E-06  
   1.92000000000E+06;  1.07085E-06  ; 2.49476E-06  
   1.92168750000E+06; -9.14609E-07  ; 5.13776E-06  
   1.92337500000E+06;  4.66043E-07  ; 5.59206E-06  
   1.92506250000E+06; -1.09546E-06  ; 2.76878E-06  
   1.92675000000E+06; -5.37785E-07  ; 1.46858E-06  
   1.92843750000E+06; -1.21834E-06  ; 4.72989E-06  
   1.93012500000E+06; -1.62137E-06  ; 5.28537E-06  
   1.93181250000E+06; -2.25574E-06  ; 3.35253E-06  
   1.93350000000E+06;  1.26808E-06  ; 2.45532E-06  
   1.93518750000E+06; -3.7938E-07   ; 4.88559E-06  
   1.93687500000E+06; -6.92609E-07  ; 4.69183E-06  
   1.93856250000E+06; -1.60311E-06  ; 5.44613E-06  
   1.94025000000E+06; -2.98899E-06  ; 3.26504E-06  
   1.94193750000E+06; -1.44534E-06  ; 4.64941E-06  
   1.94362500000E+06;  1.49632E-07  ; 3.6866E-06   
   1.94531250000E+06; -2.82241E-06  ; 2.86E-06     
   1.94700000000E+06; -1.59303E-06  ; 3.50357E-06  
   1.94868750000E+06; -7.31835E-07  ; 5.12116E-06  
   1.95037500000E+06; -1.94651E-06  ; 4.41334E-06  
   1.95206250000E+06; -4.28271E-07  ; 4.80586E-06  
   1.95375000000E+06;  3.33363E-07  ; 3.25852E-06  
   1.95543750000E+06;  5.51737E-08  ; 5.27856E-06  
   1.95712500000E+06; -7.79988E-07  ; 3.59707E-06  
   1.95881250000E+06; -2.18097E-07  ; 4.77547E-06  
   1.96050000000E+06; -1.596E-06    ; 3.92229E-06  
   1.96218750000E+06;  6.60734E-07  ; 3.47735E-06  
   1.96387500000E+06; -8.29718E-07  ; 3.63426E-06  
   1.96556250000E+06; -1.583E-06    ; 6.56559E-06  
   1.96725000000E+06; -2.82536E-07  ; 4.96384E-06  
   1.96893750000E+06; -9.35619E-07  ; 5.63911E-06  
   1.97062500000E+06; -2.93786E-08  ; 3.73576E-06  
   1.97231250000E+06; -5.68499E-08  ; 3.6763E-06   
   1.97400000000E+06;  2.02895E-07  ; 4.33236E-06  
   1.97568750000E+06; -1.17635E-06  ; 3.38878E-06  
   1.97737500000E+06;  4.2026E-07   ; 3.89717E-06  
   1.97906250000E+06; -3.25073E-06  ; 4.5876E-06   
   1.98075000000E+06;  9.32701E-08  ; 2.24812E-06  
   1.98243750000E+06; -3.70612E-07  ; 4.41942E-06  
   1.98412500000E+06; -1.59038E-06  ; 5.29114E-06  
   1.98581250000E+06; -1.33232E-06  ; 5.34313E-06  
   1.98750000000E+06; -1.13294E-06  ; 4.12073E-06  
   1.98918750000E+06; -6.5439E-07   ; 4.42998E-06  
   1.99087500000E+06; -6.38335E-07  ; 6.75339E-06  
   1.99256250000E+06; -7.55705E-07  ; 5.6944E-06   
   1.99425000000E+06; -5.28931E-07  ; 4.21829E-06  
   1.99593750000E+06; -4.5086E-07   ; 4.56719E-06  
   1.99762500000E+06; -3.86982E-08  ; 4.61816E-06  
   1.99931250000E+06; -6.4195E-07   ; 3.87637E-06  
   2.00100000000E+06;  9.42969E-07  ; 3.46509E-06  
   2.00268750000E+06;  8.07678E-08  ; 4.97551E-06  
   2.00437500000E+06; -4.71069E-07  ; 3.46063E-06  
   2.00606250000E+06; -8.03452E-07  ; 5.2783E-06   
   2.00775000000E+06; -4.72503E-07  ; 6.23244E-06  
   2.00943750000E+06; -4.29896E-06  ; 4.86649E-06  
   2.01112500000E+06; -9.72283E-07  ; 3.07094E-06  
   2.01281250000E+06; -2.41329E-06  ; 3.78767E-06  
   2.01450000000E+06; -1.55767E-06  ; 5.6498E-06   
   2.01618750000E+06; -2.18733E-06  ; 7.77214E-06  
   2.01787500000E+06; -6.10018E-07  ; 3.01614E-06  
   2.01956250000E+06; -2.90726E-06  ; 6.00977E-06  
   2.02125000000E+06;  4.84448E-07  ; 4.75577E-06  
   2.02293750000E+06; -1.42885E-06  ; 4.50975E-06  
   2.02462500000E+06;  6.8394E-07   ; 5.90071E-06  
   2.02631250000E+06; -2.58607E-06  ; 5.07494E-06  
   2.02800000000E+06; -1.90508E-06  ; 6.04488E-06  
   2.02968750000E+06;  9.55037E-08  ; 5.37893E-06  
   2.03137500000E+06; -6.30667E-07  ; 1.6853E-06   
   2.03306250000E+06; -2.2972E-06   ; 5.91822E-06  
   2.03475000000E+06; -2.2807E-06   ; 4.77396E-06  
   2.03643750000E+06; -1.24648E-06  ; 5.27913E-06  
   2.03812500000E+06;  2.97509E-07  ; 6.09438E-06  
   2.03981250000E+06;  8.02866E-07  ; 5.20765E-06  
   2.04150000000E+06; -1.96486E-06  ; 7.17805E-06  
   2.04318750000E+06; -1.43228E-06  ; 3.67768E-06  
   2.04487500000E+06;  6.47442E-07  ; 5.59282E-06  
   2.04656250000E+06; -1.37324E-06  ; 3.95423E-06  
   2.04825000000E+06;  1.46839E-09  ; 5.78209E-06  
   2.04993750000E+06; -2.8189E-06   ; 4.31185E-06  
   2.05162500000E+06; -1.32404E-06  ; 4.60727E-06  
   2.05331250000E+06; -7.01547E-07  ; 4.06821E-06  
   2.05500000000E+06; -2.988E-06    ; 2.13814E-06  
   2.05668750000E+06; -4.12886E-07  ; 3.27068E-06  
   2.05837500000E+06; -1.12603E-06  ; 4.99138E-06  
   2.06006250000E+06; -1.25779E-06  ; 4.05268E-06  
   2.06175000000E+06; -1.27423E-06  ; 5.7922E-06   
   2.06343750000E+06; -1.31108E-07  ; 4.08189E-06  
   2.06512500000E+06; -3.35268E-06  ; 2.63961E-06  
   2.06681250000E+06; -8.68804E-08  ; 3.35117E-06  
   2.06850000000E+06; -9.525E-07    ; 3.47046E-06  
   2.07018750000E+06; -9.2328E-07   ; 3.35917E-06  
   2.07187500000E+06; -8.1604E-07   ; 3.06127E-06  
   2.07356250000E+06; -1.48964E-06  ; 4.56847E-06  
   2.07525000000E+06;  5.9853E-07   ; 4.20794E-06  
   2.07693750000E+06; -3.2384E-06   ; 4.58505E-06  
   2.07862500000E+06; -6.02E-07     ; 4.75991E-06  
   2.08031250000E+06; -1.36363E-07  ; 5.76974E-06  
   2.08200000000E+06; -1.20176E-06  ; 6.17866E-06  
   2.08368750000E+06; -1.45209E-06  ; 5.04358E-06  
   2.08537500000E+06; -2.09361E-07  ; 5.01054E-06  
   2.08706250000E+06; -1.83828E-06  ; 5.20645E-06  
   2.08875000000E+06; -2.29442E-06  ; 4.33599E-06  
   2.09043750000E+06; -1.30786E-06  ; 4.54183E-06  
   2.09212500000E+06;  6.1341E-07   ; 4.72286E-06  
   2.09381250000E+06; -2.88565E-06  ; 3.36152E-06  
   2.09550000000E+06; -1.57984E-06  ; 3.27287E-06  
   2.09718750000E+06; -1.33924E-06  ; 5.19996E-06  
   2.09887500000E+06; -2.13327E-06  ; 3.55146E-06  
   2.10056250000E+06; -3.3849E-08   ; 5.47125E-06  
   2.10225000000E+06; -9.5692E-07   ; 5.12522E-06  
   2.10393750000E+06; -1.05045E-06  ; 5.78538E-06  
   2.10562500000E+06; -1.823E-06    ; 3.91425E-06  
   2.10731250000E+06; -1.46483E-06  ; 3.88783E-06  
   2.10900000000E+06; -4.7901E-07   ; 4.95346E-06  
   2.11068750000E+06; -1.08819E-06  ; 5.34398E-06  
   2.11237500000E+06; -9.84092E-07  ; 6.2632E-06   
   2.11406250000E+06; -1.65964E-06  ; 3.61814E-06  
   2.11575000000E+06; -1.48706E-06  ; 6.1529E-06   
   2.11743750000E+06;  1.32896E-06  ; 5.05796E-06  
   2.11912500000E+06; -8.80073E-07  ; 5.68939E-06  
   2.12081250000E+06; -5.29518E-07  ; 4.53364E-06  
   2.12250000000E+06; -2.13013E-06  ; 3.79836E-06  
   2.12418750000E+06; -2.63188E-06  ; 5.27537E-06  
   2.12587500000E+06;  4.35736E-07  ; 6.9185E-06   
   2.12756250000E+06; -6.64078E-07  ; 5.29994E-06  
   2.12925000000E+06; -1.48766E-06  ; 3.72173E-06  
   2.13093750000E+06; -4.25572E-07  ; 3.16113E-06  
   2.13262500000E+06;  3.77198E-07  ; 3.59866E-06  
   2.13431250000E+06;  1.30733E-06  ; 3.90391E-06  
   2.13600000000E+06; -1.55232E-06  ; 5.39817E-06  
   2.13768750000E+06; -2.05385E-06  ; 5.9465E-06   
   2.13937500000E+06; -1.34536E-06  ; 6.97939E-06  
   2.14106250000E+06; -5.27268E-07  ; 4.45631E-06  
   2.14275000000E+06; -6.4873E-07   ; 2.95323E-06  
   2.14443750000E+06; -2.77331E-06  ; 4.26465E-06  
   2.14612500000E+06; -4.1041E-06   ; 5.29791E-06  
   2.14781250000E+06; -1.9945E-06   ; 3.99102E-06  
   2.14950000000E+06;  1.98387E-07  ; 4.59977E-06  
   2.15118750000E+06;  1.75024E-07  ; 4.86477E-06  
   2.15287500000E+06;  2.89162E-06  ; 5.55514E-06  
   2.15456250000E+06; -3.28611E-06  ; 4.56652E-06  
   2.15625000000E+06; -6.22413E-07  ; 5.04087E-06  
   2.15793750000E+06; -1.20389E-06  ; 5.03676E-06  
   2.15962500000E+06; -1.37369E-06  ; 7.24506E-06  
   2.16131250000E+06; -1.11117E-06  ; 3.79239E-06  
   2.16300000000E+06; -2.60228E-06  ; 4.41222E-06  
   2.16468750000E+06; -1.02711E-06  ; 3.89634E-06  
   2.16637500000E+06; -1.04749E-06  ; 5.09024E-06  
   2.16806250000E+06;  2.59282E-07  ; 3.89981E-06  
   2.16975000000E+06; -2.06524E-06  ; 3.50576E-06  
   2.17143750000E+06; -7.26808E-07  ; 4.3417E-06   
   2.17312500000E+06; -1.30056E-06  ; 5.50438E-06  
   2.17481250000E+06;  2.06679E-07  ; 8.69716E-06  
   2.17650000000E+06;  7.44666E-07  ; 6.19372E-06  
   2.17818750000E+06; -8.42821E-07  ; 4.09577E-06  
   2.17987500000E+06; -8.13853E-07  ; 3.78718E-06  
   2.18156250000E+06; -2.43554E-06  ; 4.41468E-06  
   2.18325000000E+06; -6.91819E-07  ; 5.16542E-06  
   2.18493750000E+06;  6.59394E-08  ; 6.59174E-06  
   2.18662500000E+06; -2.06904E-06  ; 5.7676E-06   
   2.18831250000E+06; -2.4753E-06   ; 4.75293E-06  
   2.19000000000E+06; -1.54321E-06  ; 5.92864E-06  
   2.19168750000E+06; -3.00444E-06  ; 5.11382E-06  
   2.19337500000E+06; -3.16818E-06  ; 5.71923E-06  
   2.19506250000E+06;  1.34761E-06  ; 3.9356E-06   
   2.19675000000E+06; -1.38363E-06  ; 4.85339E-06  
   2.19843750000E+06; -2.27775E-06  ; 4.65282E-06  
   2.20012500000E+06;  6.3096E-08   ; 2.90848E-06  
   2.20181250000E+06; -2.9782E-06   ; 5.61553E-06  
   2.20350000000E+06; -1.60186E-06  ; 5.56808E-06  
   2.20518750000E+06; -2.71661E-06  ; 7.04051E-06  
   2.20687500000E+06;  3.25506E-07  ; 4.34628E-06  
   2.20856250000E+06; -9.15864E-07  ; 7.01449E-06  
   2.21025000000E+06; -1.95795E-07  ; 6.753E-06    
   2.21193750000E+06;  4.69861E-07  ; 6.21903E-06  
   2.21362500000E+06; -6.05587E-07  ; 5.64002E-06  
   2.21531250000E+06;  1.39863E-06  ; 5.2988E-06   
   2.21700000000E+06;  1.50581E-06  ; 5.0481E-06   
   2.21868750000E+06; -1.63822E-06  ; 4.16773E-06  
   2.22037500000E+06; -1.69339E-06  ; 5.29702E-06  
   2.22206250000E+06; -1.8894E-06   ; 5.5869E-06   
   2.22375000000E+06; -2.62106E-06  ; 3.1207E-06   
   2.22543750000E+06; -2.02743E-06  ; 7.51118E-06  
   2.22712500000E+06; -5.97696E-07  ; 8.13855E-06  
   2.22881250000E+06;  9.37098E-07  ; 6.43183E-06  
   2.23050000000E+06;  1.53366E-06  ; 3.515E-06    
   2.23218750000E+06; -2.85718E-07  ; 4.26186E-06  
   2.23387500000E+06; -5.47191E-07  ; 4.30916E-06  
   2.23556250000E+06; -2.31305E-06  ; 6.1124E-06   
   2.23725000000E+06; -2.06762E-06  ; 5.77926E-06  
   2.23893750000E+06;  4.07341E-07  ; 5.81329E-06  
   2.24062500000E+06; -8.11274E-07  ; 6.2619E-06   
   2.24231250000E+06; -1.06259E-06  ; 8.14919E-06  
   2.24400000000E+06; -2.70696E-07  ; 9.44221E-06  
   2.24568750000E+06; -2.79464E-06  ; 5.90523E-06  
   2.24737500000E+06;  1.39629E-06  ; 8.04454E-06  
   2.24906250000E+06;  1.13639E-07  ; 8.11562E-06  
   2.25075000000E+06;  1.57464E-06  ; 3.72054E-06  
   2.25243750000E+06; -7.64973E-07  ; 3.42477E-06  
   2.25412500000E+06; -2.22082E-06  ; 5.32514E-06  
   2.25581250000E+06; -1.28029E-07  ; 4.95471E-06  
   2.25750000000E+06; -2.91429E-06  ; 3.76273E-06  
   2.25918750000E+06; -3.01459E-06  ; 5.01516E-06  
   2.26087500000E+06;  3.81115E-07  ; 6.90016E-06  
   2.26256250000E+06;  2.1113E-07   ; 4.76621E-06  
   2.26425000000E+06; -3.86826E-06  ; 1.96105E-06  
   2.26593750000E+06; -4.20494E-06  ; 5.61135E-06  
   2.26762500000E+06; -4.2828E-06   ; 8.94358E-06  
   2.26931250000E+06;  8.56827E-07  ; 7.15746E-06  
   2.27100000000E+06; -5.25386E-06  ; 4.41208E-06  
   2.27268750000E+06; -3.91802E-06  ; 7.33207E-06  
   2.27437500000E+06; -5.6194E-08   ; 6.73841E-06  
   2.27606250000E+06;  7.59259E-07  ; 6.88721E-06  
   2.27775000000E+06;  1.98396E-06  ; 7.39607E-06  
   2.27943750000E+06;  5.52582E-06  ;-1.69569E-06  
   2.28112500000E+06; -3.12963E-06  ;-1.22395E-06  
   2.28281250000E+06; -2.34767E-06  ; 2.38849E-06  
   2.28450000000E+06; -6.67802E-06  ; 7.97503E-06  
   2.28618750000E+06; -5.15773E-06  ; 9.54616E-06  
   2.28787500000E+06; -6.25887E-07  ; 1.01205E-05  
   2.28956250000E+06;  5.00601E-06  ; 6.95081E-06  
   2.29125000000E+06;  1.5824E-06   ; 8.63739E-06  
   2.29293750000E+06;  2.65163E-06  ; 1.46203E-06  
   2.29462500000E+06; -4.94049E-07  ; 2.14989E-07  
   2.29631250000E+06; -4.60882E-06  ; 5.55985E-06  
   2.29800000000E+06; -3.91508E-07  ; 6.49921E-06  
   2.29968750000E+06; -1.97733E-06  ; 8.83176E-06  
   2.30137500000E+06; -2.8803E-06   ; 4.71048E-06  
   2.30306250000E+06; -2.264E-06    ; 6.33544E-06  
   2.30475000000E+06; -3.85381E-06  ; 4.36603E-06  
   2.30643750000E+06; -1.99571E-06  ; 9.86747E-06  
   2.30812500000E+06;  1.02047E-07  ; 3.91322E-06  
   2.30981250000E+06; -1.87342E-06  ; 6.97923E-06  
   2.31150000000E+06; -1.3618E-06   ; 7.53365E-06  
   2.31318750000E+06;  8.00027E-07  ; 8.01732E-06  
   2.31487500000E+06;  1.40027E-06  ; 6.30221E-06  
   2.31656250000E+06; -1.51924E-06  ; 3.09298E-06  
   2.31825000000E+06; -2.68375E-07  ; 3.16751E-06  
   2.31993750000E+06;  1.50508E-06  ; 4.57373E-06  
   2.32162500000E+06; -1.57553E-06  ; 6.67527E-06  
   2.32331250000E+06;  2.05094E-09  ; 5.46348E-06  
   2.32500000000E+06; -1.18583E-06  ; 6.27807E-06  
   2.32668750000E+06;  8.35843E-07  ; 3.19292E-06  
   2.32837500000E+06; -2.1337E-06   ; 5.2494E-06   
   2.33006250000E+06; -1.53452E-06  ; 6.59657E-06  
   2.33175000000E+06;  3.26318E-07  ; 6.00409E-06  
   2.33343750000E+06; -1.77363E-06  ; 6.29672E-06  
   2.33512500000E+06; -2.90171E-06  ; 5.45116E-06  
   2.33681250000E+06; -2.29502E-06  ; 4.85595E-06  
   2.33850000000E+06; -1.17775E-06  ; 6.71837E-06  
   2.34018750000E+06; -2.6558E-06   ; 4.28676E-06  
   2.34187500000E+06;  4.74307E-07  ; 4.44486E-06  
   2.34356250000E+06; -1.23038E-06  ; 6.2415E-06   
   2.34525000000E+06; -3.47343E-07  ; 4.7144E-06   
   2.34693750000E+06; -4.38093E-07  ; 5.49862E-06  
   2.34862500000E+06; -3.01181E-06  ; 4.40918E-06  
   2.35031250000E+06; -1.14884E-06  ; 5.50657E-06  
   2.35200000000E+06; -3.62411E-07  ; 7.94606E-06  
   2.35368750000E+06; -1.06854E-06  ; 5.11265E-06  
   2.35537500000E+06; -2.75934E-06  ; 4.92102E-06  
   2.35706250000E+06;  6.87593E-07  ; 6.48699E-06  
   2.35875000000E+06; -4.31648E-07  ; 4.36897E-06  
   2.36043750000E+06;  6.67392E-07  ; 6.61076E-06  
   2.36212500000E+06; -1.47697E-06  ; 8.95208E-06  
   2.36381250000E+06; -1.04564E-07  ; 5.6213E-06   
   2.36550000000E+06; -2.84177E-06  ; 6.53374E-06  
   2.36718750000E+06;  9.51452E-07  ; 6.98828E-06  
   2.36887500000E+06; -2.32196E-06  ; 8.47042E-06  
   2.37056250000E+06; -1.08708E-06  ; 7.77696E-06  
   2.37225000000E+06; -5.97679E-07  ; 6.41204E-06  
   2.37393750000E+06; -1.5961E-06   ; 6.5147E-06   
   2.37562500000E+06; -2.243E-06    ; 4.33679E-06  
   2.37731250000E+06; -3.83965E-07  ; 5.14481E-06  
   2.37900000000E+06;  1.86097E-06  ; 4.53252E-06  
   2.38068750000E+06; -3.14225E-06  ; 6.62439E-06  
   2.38237500000E+06; -3.02729E-06  ; 6.39718E-06  
   2.38406250000E+06; -1.52299E-06  ; 4.67423E-06  
   2.38575000000E+06; -6.0091E-07   ; 6.60382E-06  
   2.38743750000E+06;  1.10166E-07  ; 5.49319E-06  
   2.38912500000E+06; -6.81802E-07  ; 5.34227E-06  
   2.39081250000E+06; -6.02328E-07  ; 4.94931E-06  
   2.39250000000E+06; -3.88266E-07  ; 6.25065E-06  
   2.39418750000E+06; -2.02645E-06  ; 8.13708E-06  
   2.39587500000E+06; -1.7236E-06   ; 7.84574E-06  
   2.39756250000E+06; -1.52984E-06  ; 4.45037E-06  
   2.39925000000E+06; -8.31659E-07  ; 4.48437E-06  
   2.40093750000E+06; -4.5207E-06   ; 6.47957E-06  
   2.40262500000E+06;  1.57559E-08  ; 2.78894E-06  
   2.40431250000E+06; -2.05515E-06  ; 6.30491E-06  
   2.40600000000E+06; -1.54523E-06  ; 5.45406E-06  
   2.40768750000E+06; -9.40783E-07  ; 3.90676E-06  
   2.40937500000E+06; -6.31723E-08  ; 4.36597E-06  
   2.41106250000E+06; -2.26829E-07  ; 5.05167E-06  
   2.41275000000E+06;  2.55283E-07  ; 6.05864E-06  
   2.41443750000E+06; -3.04012E-06  ; 4.27505E-06  
   2.41612500000E+06; -9.80303E-07  ; 6.5526E-06   
   2.41781250000E+06; -9.02375E-08  ; 7.34168E-06  
   2.41950000000E+06; -4.80956E-07  ; 6.19896E-06  
   2.42118750000E+06;  7.23587E-07  ; 6.10025E-06  
   2.42287500000E+06; -8.63734E-07  ; 4.09006E-06  
   2.42456250000E+06; -3.56467E-07  ; 7.82008E-06  
   2.42625000000E+06; -5.00687E-07  ; 5.1787E-06   
   2.42793750000E+06; -7.21747E-07  ; 3.78388E-06  
   2.42962500000E+06; -2.13739E-06  ; 9.42201E-06  
   2.43131250000E+06; -5.79482E-07  ; 1.99061E-06  
   2.43300000000E+06; -1.4239E-06   ; 6.14384E-06  
   2.43468750000E+06; -1.10687E-06  ; 5.82708E-06  
   2.43637500000E+06; -1.3225E-06   ; 6.39856E-06  
   2.43806250000E+06; -2.15292E-06  ; 3.42984E-06  
   2.43975000000E+06; -4.45949E-08  ; 2.90905E-06  
   2.44143750000E+06; -2.15824E-06  ; 6.37626E-06  
   2.44312500000E+06; -2.56818E-06  ; 4.995E-06    
   2.44481250000E+06; -2.66947E-06  ; 5.47833E-06  
   2.44650000000E+06; -2.33576E-06  ; 8.41925E-06  
   2.44818750000E+06;  9.61886E-07  ; 5.77183E-06  
   2.44987500000E+06; -1.7163E-07   ; 4.65201E-06  
   2.45156250000E+06; -1.50042E-06  ; 6.49844E-06  
   2.45325000000E+06; -3.01562E-06  ; 2.54019E-06  
   2.45493750000E+06; -1.86606E-06  ; 3.19604E-06  
   2.45662500000E+06; -3.00316E-06  ; 6.53656E-06  
   2.45831250000E+06; -1.6163E-06   ; 7.9357E-06   
   2.46000000000E+06; -2.52312E-06  ; 6.75428E-06  
   2.46168750000E+06; -2.34532E-06  ; 6.57975E-06  
   2.46337500000E+06; -1.74549E-06  ; 4.67796E-06  
   2.46506250000E+06;  3.02881E-07  ; 5.34125E-06  
   2.46675000000E+06; -2.23423E-06  ; 3.511E-06    
   2.46843750000E+06; -1.08513E-06  ; 4.18795E-06  
   2.47012500000E+06; -5.14994E-07  ; 4.23281E-06  
   2.47181250000E+06; -1.05451E-06  ; 7.03265E-06  
   2.47350000000E+06; -9.75999E-07  ; 7.73574E-06  
   2.47518750000E+06; -6.74558E-07  ; 4.92498E-06  
   2.47687500000E+06; -4.19734E-06  ; 6.54606E-06  
   2.47856250000E+06; -1.33643E-06  ; 6.52802E-06  
   2.48025000000E+06; -1.0918E-06   ; 4.93715E-06  
   2.48193750000E+06; -2.0337E-06   ; 7.66845E-06  
   2.48362500000E+06; -9.31979E-07  ; 7.58828E-06  
   2.48531250000E+06; -1.83523E-06  ; 5.5797E-06   
   2.48700000000E+06; -2.30398E-07  ; 4.33265E-06  
   2.48868750000E+06; -1.00852E-06  ; 7.83187E-06  
   2.49037500000E+06; -1.88653E-06  ; 6.40515E-06  
   2.49206250000E+06; -3.4967E-06   ; 5.12575E-06  
   2.49375000000E+06;  7.53236E-07  ; 5.1274E-06   
   2.49543750000E+06; -6.86616E-07  ; 5.28337E-06  
   2.49712500000E+06; -1.19141E-06  ; 3.92303E-06  
   2.49881250000E+06; -2.52058E-06  ; 4.78765E-06  
   2.50050000000E+06; -1.44447E-06  ; 4.10555E-06  
   2.50218750000E+06; -1.71163E-06  ; 4.49266E-06  
   2.50387500000E+06; -2.47106E-06  ; 6.3463E-06   
   2.50556250000E+06; -1.36302E-06  ; 7.46225E-06  
   2.50725000000E+06; -2.84747E-06  ; 4.37194E-06  
   2.50893750000E+06; -1.44042E-06  ; 5.39483E-06  
   2.51062500000E+06; -1.64779E-07  ; 5.93252E-06  
   2.51231250000E+06;  3.22206E-07  ; 5.1038E-06   
   2.51400000000E+06; -1.06905E-06  ; 4.89298E-06  
   2.51568750000E+06; -2.43194E-06  ; 7.97936E-06  
   2.51737500000E+06; -1.92926E-06  ; 5.56696E-06  
   2.51906250000E+06; -1.29944E-06  ; 6.39112E-06  
   2.52075000000E+06; -1.42282E-07  ; 4.1274E-06   
   2.52243750000E+06; -1.82831E-06  ; 7.67158E-06  
   2.52412500000E+06;  2.76004E-07  ; 6.84519E-06  
   2.52581250000E+06; -1.64125E-06  ; 5.18323E-06  
   2.52750000000E+06; -1.52828E-06  ; 4.60858E-06  
   2.52918750000E+06;  1.87087E-07  ; 7.00041E-06  
   2.53087500000E+06; -1.97105E-06  ; 3.65682E-06  
   2.53256250000E+06; -3.81693E-07  ; 5.58223E-06  
   2.53425000000E+06; -1.31717E-06  ; 5.82032E-06  
   2.53593750000E+06;  3.92119E-09  ; 5.23452E-06  
   2.53762500000E+06; -1.03131E-06  ; 3.79181E-06  
   2.53931250000E+06; -1.56842E-06  ; 5.79494E-06  
   2.54100000000E+06;  1.19698E-06  ; 5.47776E-06  
   2.54268750000E+06;  5.8647E-07   ; 5.54509E-06  
   2.54437500000E+06;  1.3339E-07   ; 4.67927E-06  
   2.54606250000E+06;  1.20834E-07  ; 4.71761E-06  
   2.54775000000E+06;  1.63825E-07  ; 7.54937E-06  
   2.54943750000E+06; -7.676E-07    ; 7.04135E-06  
   2.55112500000E+06; -2.05594E-06  ; 9.95649E-06  
   2.55281250000E+06; -3.24194E-06  ; 7.07128E-06  
   2.55450000000E+06; -1.46036E-06  ; 4.2038E-06   
   2.55618750000E+06; -1.60384E-06  ; 3.41252E-06  
   2.55787500000E+06; -1.78563E-06  ; 5.36784E-06  
   2.55956250000E+06; -2.10826E-06  ; 4.82978E-06  
   2.56125000000E+06; -5.38028E-07  ; 7.11244E-06  
   2.56293750000E+06;  6.35322E-07  ; 5.89295E-06  
   2.56462500000E+06; -2.39155E-06  ; 4.92007E-06  
   2.56631250000E+06; -1.4413E-06   ; 3.77149E-06  
   2.56800000000E+06; -1.36815E-06  ; 5.91838E-06  
   2.56968750000E+06; -1.37476E-06  ; 6.86608E-06  
   2.57137500000E+06;  1.48406E-07  ; 5.45733E-06  
   2.57306250000E+06; -2.81515E-06  ; 7.88051E-06  
   2.57475000000E+06; -1.61807E-06  ; 8.7828E-06   
   2.57643750000E+06; -1.74651E-06  ; 7.35374E-06  
   2.57812500000E+06; -1.97977E-06  ; 6.28804E-06  
   2.57981250000E+06; -2.22408E-06  ; 5.2305E-06   
   2.58150000000E+06; -1.14838E-06  ; 9.28934E-06  
   2.58318750000E+06; -4.55486E-07  ; 7.37376E-06  
   2.58487500000E+06; -1.86599E-06  ; 6.27623E-06  
   2.58656250000E+06;  8.01386E-07  ; 5.17537E-06  
   2.58825000000E+06; -2.74024E-06  ; 3.63247E-06  
   2.58993750000E+06; -1.37275E-06  ; 6.62991E-06  
   2.59162500000E+06;  5.95436E-07  ; 4.6695E-06   
   2.59331250000E+06; -1.57597E-06  ; 6.05975E-06  
   2.59500000000E+06; -4.85734E-07  ; 4.75067E-06  
   2.59668750000E+06; -2.67633E-06  ; 3.32547E-06  
   2.59837500000E+06; -1.18114E-06  ; 5.37679E-06  
   2.60006250000E+06; -1.66357E-06  ; 7.29523E-06  
   2.60175000000E+06; -1.66204E-06  ; 6.38599E-06  
   2.60343750000E+06; -1.98588E-06  ; 7.26177E-06  
   2.60512500000E+06; -1.1603E-06   ; 6.12301E-06  
   2.60681250000E+06; -3.25597E-06  ; 4.5365E-06   
   2.60850000000E+06; -2.25763E-06  ; 7.76819E-06  
   2.61018750000E+06; -6.49899E-07  ; 4.81296E-06  
   2.61187500000E+06; -9.80407E-07  ; 7.25199E-06  
   2.61356250000E+06;  4.42761E-07  ; 5.41784E-06  
   2.61525000000E+06;  9.38649E-07  ; 3.99615E-06  
   2.61693750000E+06; -6.15412E-07  ; 5.2069E-06   
   2.61862500000E+06; -1.2045E-06   ; 3.16714E-06  
   2.62031250000E+06;  2.07353E-06  ; 5.20743E-06  
   2.62200000000E+06;  1.00818E-06  ; 6.10855E-06  
   2.62368750000E+06; -3.11416E-07  ; 5.9012E-06   
   2.62537500000E+06; -1.93993E-06  ; 7.0305E-06   
   2.62706250000E+06; -1.9646E-06   ; 6.62662E-06  
   2.62875000000E+06; -1.27992E-06  ; 7.70287E-06  
   2.63043750000E+06;  1.99913E-07  ; 4.21526E-06  
   2.63212500000E+06; -5.04778E-07  ; 6.32974E-06  
   2.63381250000E+06; -1.33982E-06  ; 6.61453E-06  
   2.63550000000E+06; -1.8855E-06   ; 6.55569E-06  
   2.63718750000E+06; -8.90883E-07  ; 6.29511E-06  
   2.63887500000E+06;  9.46656E-07  ; 6.65059E-06  
   2.64056250000E+06; -2.03855E-06  ; 5.35089E-06  
   2.64225000000E+06; -3.18223E-06  ; 3.93964E-06  
   2.64393750000E+06; -4.09163E-07  ; 3.17766E-06  
   2.64562500000E+06; -6.1247E-07   ; 5.27188E-06  
   2.64731250000E+06; -1.01328E-06  ; 6.16938E-06  
   2.64900000000E+06; -4.79337E-06  ; 5.77094E-06  
   2.65068750000E+06; -1.61307E-06  ; 5.07626E-06  
   2.65237500000E+06; -2.17912E-06  ; 7.59422E-06  
   2.65406250000E+06; -2.50888E-06  ; 5.62844E-06  
   2.65575000000E+06; -1.73874E-06  ; 5.23547E-06  
   2.65743750000E+06; -1.05876E-06  ; 3.03707E-06  
   2.65912500000E+06; -9.25616E-07  ; 7.57276E-06  
   2.66081250000E+06; -1.16816E-06  ; 5.44029E-06  
   2.66250000000E+06; -3.38271E-06  ; 2.41571E-06  
   2.66418750000E+06; -1.45614E-06  ; 6.46388E-06  
   2.66587500000E+06; -1.43609E-06  ; 5.09631E-06  
   2.66756250000E+06; -3.06126E-06  ; 3.89572E-06  
   2.66925000000E+06; -3.28404E-06  ; 6.31677E-06  
   2.67093750000E+06; -1.43103E-06  ; 6.05407E-06  
   2.67262500000E+06;  3.35552E-07  ; 5.41854E-06  
   2.67431250000E+06; -2.63015E-06  ; 7.34096E-06  
   2.67600000000E+06; -1.30977E-06  ; 5.60772E-06  
   2.67768750000E+06; -1.00348E-06  ; 4.54376E-06  
   2.67937500000E+06;  1.54164E-07  ; 6.63915E-06  
   2.68106250000E+06;  3.11209E-07  ; 5.41429E-06  
   2.68275000000E+06; -1.34551E-06  ; 5.27755E-06  
   2.68443750000E+06; -2.04799E-06  ; 5.7533E-06   
   2.68612500000E+06; -1.61929E-06  ; 5.89803E-06  
   2.68781250000E+06; -3.01124E-06  ; 7.17527E-06  
   2.68950000000E+06; -1.15017E-06  ; 5.53572E-06  
   2.69118750000E+06; -8.79466E-07  ; 7.05901E-06  
   2.69287500000E+06;  1.56719E-06  ; 5.42921E-06  
   2.69456250000E+06; -2.35788E-06  ; 6.56355E-06  
   2.69625000000E+06; -1.36059E-06  ; 3.74395E-06  
   2.69793750000E+06; -3.32281E-07  ; 4.00086E-06  
   2.69962500000E+06; -1.22436E-06  ; 5.0068E-06   
   2.70131250000E+06; -1.11356E-06  ; 6.16817E-06  
   2.70300000000E+06; -9.47701E-07  ; 5.88678E-06  
   2.70468750000E+06; -2.20166E-06  ; 4.79409E-06  
   2.70637500000E+06; -2.24755E-06  ; 4.52575E-06  
   2.70806250000E+06; -2.68413E-06  ; 4.34854E-06  
   2.70975000000E+06; -8.46045E-07  ; 9.41346E-06  
   2.71143750000E+06; -2.73704E-06  ; 5.07601E-06  
   2.71312500000E+06; -2.74054E-06  ; 7.14851E-06  
   2.71481250000E+06; -1.49911E-06  ; 6.37482E-06  
   2.71650000000E+06; -9.27794E-07  ; 7.46704E-06  
   2.71818750000E+06; -3.25427E-06  ; 6.62608E-06  
   2.71987500000E+06; -1.20359E-06  ; 6.41818E-06  
   2.72156250000E+06; -2.39511E-06  ; 5.2973E-06   
   2.72325000000E+06; -1.93698E-06  ; 6.61624E-06  
   2.72493750000E+06; -3.29121E-06  ; 4.00632E-06  
   2.72662500000E+06; -2.20082E-06  ; 7.11542E-06  
   2.72831250000E+06; -1.46635E-06  ; 5.4028E-06   
   2.73000000000E+06; -3.27395E-06  ; 5.78815E-06  
   2.73168750000E+06;  1.44764E-06  ; 6.31648E-06  
   2.73337500000E+06; -5.05176E-07  ; 4.61574E-06  
   2.73506250000E+06; -1.04595E-06  ; 6.03309E-06  
   2.73675000000E+06; -7.5586E-07   ; 6.49174E-06  
   2.73843750000E+06; -1.73005E-06  ; 6.31755E-06  
   2.74012500000E+06; -3.43403E-06  ; 5.27851E-06  
   2.74181250000E+06;  2.12791E-07  ; 6.61147E-06  
   2.74350000000E+06;  1.32157E-07  ; 5.18808E-06  
   2.74518750000E+06; -6.93064E-07  ; 7.33635E-06  
   2.74687500000E+06; -2.1921E-06   ; 6.86914E-06  
   2.74856250000E+06; -3.02378E-06  ; 6.52561E-06  
   2.75025000000E+06; -8.19067E-07  ; 6.49761E-06  
   2.75193750000E+06; -7.26894E-07  ; 6.23686E-06  
   2.75362500000E+06; -1.71573E-06  ; 3.91907E-06  
   2.75531250000E+06; -4.20877E-08  ; 6.72058E-06  
   2.75700000000E+06; -2.15124E-06  ; 7.94299E-06  
   2.75868750000E+06; -4.28391E-07  ; 7.22433E-06  
   2.76037500000E+06; -2.63977E-06  ; 6.71448E-06  
   2.76206250000E+06; -2.57367E-06  ; 9.51197E-06  
   2.76375000000E+06; -1.80037E-06  ; 6.89505E-06  
   2.76543750000E+06; -8.11802E-07  ; 8.08471E-06  
   2.76712500000E+06; -1.26194E-06  ; 6.77716E-06  
   2.76881250000E+06; -7.01388E-07  ; 6.40058E-06  
   2.77050000000E+06;  1.0157E-06   ; 1.77094E-06  
   2.77218750000E+06; -1.37028E-07  ; 5.88818E-06  
   2.77387500000E+06; -2.45039E-06  ; 9.35124E-06  
   2.77556250000E+06;  1.76175E-07  ; 3.73106E-06  
   2.77725000000E+06; -1.14822E-06  ; 4.19518E-06  
   2.77893750000E+06; -7.66094E-07  ; 6.47577E-06  
   2.78062500000E+06; -1.50974E-06  ; 4.63893E-06  
   2.78231250000E+06; -3.00884E-06  ; 8.89608E-06  
   2.78400000000E+06; -2.82257E-07  ; 4.72207E-06  
   2.78568750000E+06; -2.83848E-06  ; 6.76486E-06  
   2.78737500000E+06; -1.56667E-06  ; 5.88405E-06  
   2.78906250000E+06; -2.5961E-06   ; 4.88601E-06  
   2.79075000000E+06;  4.16298E-07  ; 7.66553E-06  
   2.79243750000E+06; -2.11956E-06  ; 7.68113E-06  
   2.79412500000E+06; -4.50843E-06  ; 5.43659E-06  
   2.79581250000E+06; -1.51244E-06  ; 6.93648E-06  
   2.79750000000E+06; -2.80167E-06  ; 6.94954E-06  
   2.79918750000E+06; -1.49102E-06  ; 5.45902E-06  
   2.80087500000E+06; -2.66074E-06  ; 9.45538E-06  
   2.80256250000E+06; -1.8848E-06   ; 7.20602E-06  
   2.80425000000E+06; -1.97952E-06  ; 6.41782E-06  
   2.80593750000E+06; -1.42739E-06  ; 7.99077E-06  
   2.80762500000E+06; -1.22078E-06  ; 6.60867E-06  
   2.80931250000E+06;  8.24778E-08  ; 4.13735E-06  
   2.81100000000E+06; -1.97968E-06  ; 4.39001E-06  
   2.81268750000E+06; -2.19442E-06  ; 7.89948E-06  
   2.81437500000E+06; -2.78213E-06  ; 7.34131E-06  
   2.81606250000E+06; -2.39265E-06  ; 5.2319E-06   
   2.81775000000E+06; -9.03723E-07  ; 6.46051E-06  
   2.81943750000E+06; -1.44893E-06  ; 8.70743E-06  
   2.82112500000E+06; -1.67279E-06  ; 6.77732E-06  
   2.82281250000E+06; -3.05889E-06  ; 7.45349E-06  
   2.82450000000E+06; -1.11102E-06  ; 7.48588E-06  
   2.82618750000E+06; -1.93509E-06  ; 3.94978E-06  
   2.82787500000E+06; -4.58204E-07  ; 6.22243E-06  
   2.82956250000E+06; -2.13759E-06  ; 9.05193E-06  
   2.83125000000E+06; -2.25489E-06  ; 5.05716E-06  
   2.83293750000E+06; -3.44607E-06  ; 5.67124E-06  
   2.83462500000E+06; -1.79119E-06  ; 9.05238E-06  
   2.83631250000E+06; -9.56709E-07  ; 5.58485E-06  
   2.83800000000E+06; -2.02964E-06  ; 4.8002E-06   
   2.83968750000E+06; -2.32079E-06  ; 5.73482E-06  
   2.84137500000E+06; -1.76975E-06  ; 7.61336E-06  
   2.84306250000E+06; -1.50373E-06  ; 6.23082E-06  
   2.84475000000E+06; -1.42591E-06  ; 7.17047E-06  
   2.84643750000E+06;  2.04308E-07  ; 6.94938E-06  
   2.84812500000E+06;  1.00001E-06  ; 9.64551E-06  
   2.84981250000E+06; -2.70657E-06  ; 8.46702E-06  
   2.85150000000E+06; -1.85463E-06  ; 6.7416E-06   
   2.85318750000E+06; -1.47569E-06  ; 5.63487E-06  
   2.85487500000E+06; -2.56042E-07  ; 6.85802E-06  
   2.85656250000E+06; -9.37519E-07  ; 4.81819E-06  
   2.85825000000E+06; -4.44822E-07  ; 7.44037E-06  
   2.85993750000E+06;  6.48644E-07  ; 6.22048E-06  
   2.86162500000E+06; -2.28246E-06  ; 7.88584E-06  
   2.86331250000E+06; -4.25006E-07  ; 7.79942E-06  
   2.86500000000E+06; -3.13107E-06  ; 6.53711E-06  
   2.86668750000E+06; -4.72433E-06  ; 5.13998E-06  
   2.86837500000E+06;  7.94956E-07  ; 7.57028E-06  
   2.87006250000E+06; -7.36606E-07  ; 7.79576E-06  
   2.87175000000E+06; -1.45736E-06  ; 5.94259E-06  
   2.87343750000E+06; -5.0711E-07   ; 6.8398E-06   
   2.87512500000E+06; -2.4892E-06   ; 7.63997E-06  
   2.87681250000E+06; -1.94691E-06  ; 5.75242E-06  
   2.87850000000E+06; -1.42809E-06  ; 7.61977E-06  
   2.88018750000E+06; -5.39496E-06  ; 7.5047E-06   
   2.88187500000E+06; -1.88923E-06  ; 4.78904E-06  
   2.88356250000E+06; -1.4469E-07   ; 7.57705E-06  
   2.88525000000E+06; -2.33083E-06  ; 6.6475E-06   
   2.88693750000E+06;  8.13031E-07  ; 5.16186E-06  
   2.88862500000E+06; -6.66797E-07  ; 5.67433E-06  
   2.89031250000E+06; -1.94843E-06  ; 8.5432E-06   
   2.89200000000E+06; -6.41866E-07  ; 5.39567E-06  
   2.89368750000E+06; -1.04746E-06  ; 6.7331E-06   
   2.89537500000E+06; -3.13726E-06  ; 7.5615E-06   
   2.89706250000E+06; -1.53549E-08  ; 7.1607E-06   
   2.89875000000E+06; -6.50195E-07  ; 7.78985E-06  
   2.90043750000E+06; -2.18633E-06  ; 7.03517E-06  
   2.90212500000E+06; -2.42299E-06  ; 7.79485E-06  
   2.90381250000E+06; -2.56774E-06  ; 4.3919E-06   
   2.90550000000E+06; -2.97222E-07  ; 7.57832E-06  
   2.90718750000E+06; -3.58972E-06  ; 9.42542E-06  
   2.90887500000E+06; -1.7589E-06   ; 8.62041E-06  
   2.91056250000E+06;  1.02131E-07  ; 6.37463E-06  
   2.91225000000E+06;  5.74027E-07  ; 7.22273E-06  
   2.91393750000E+06; -6.22769E-07  ; 8.27748E-06  
   2.91562500000E+06; -1.03603E-06  ; 7.02357E-06  
   2.91731250000E+06; -1.17838E-06  ; 5.95022E-06  
   2.91900000000E+06; -1.66027E-06  ; 6.83982E-06  
   2.92068750000E+06; -3.26522E-06  ; 5.15533E-06  
   2.92237500000E+06; -4.11921E-06  ; 6.83069E-06  
   2.92406250000E+06; -1.83687E-06  ; 5.37577E-06  
   2.92575000000E+06; -1.15235E-06  ; 6.24105E-06  
   2.92743750000E+06;  8.34026E-07  ; 6.19528E-06  
   2.92912500000E+06; -8.9376E-07   ; 8.24441E-06  
   2.93081250000E+06; -4.3315E-07   ; 7.12617E-06  
   2.93250000000E+06; -1.53483E-06  ; 6.38185E-06  
   2.93418750000E+06; -3.84449E-06  ; 7.17095E-06  
   2.93587500000E+06; -5.50289E-07  ; 7.44613E-06  
   2.93756250000E+06; -2.13358E-06  ; 6.13324E-06  
   2.93925000000E+06; -1.68541E-06  ; 6.10145E-06  
   2.94093750000E+06; -2.21057E-06  ; 6.24551E-06  
   2.94262500000E+06; -6.07962E-07  ; 7.86247E-06  
   2.94431250000E+06; -4.46646E-07  ; 5.52412E-06  
   2.94600000000E+06; -1.01471E-06  ; 7.46766E-06  
   2.94768750000E+06; -1.81523E-06  ; 4.21404E-06  
   2.94937500000E+06; -5.38085E-07  ; 8.36695E-06  
   2.95106250000E+06; -6.50074E-07  ; 7.03157E-06  
   2.95275000000E+06; -2.47848E-06  ; 7.20671E-06  
   2.95443750000E+06; -1.21441E-06  ; 6.50088E-06  
   2.95612500000E+06; -2.56554E-06  ; 7.36949E-06  
   2.95781250000E+06; -2.47276E-06  ; 6.48402E-06  
   2.95950000000E+06;  9.8304E-07   ; 8.01244E-06  
   2.96118750000E+06; -5.60685E-07  ; 8.1345E-06   
   2.96287500000E+06; -9.84876E-07  ; 6.06395E-06  
   2.96456250000E+06; -1.20842E-06  ; 6.76833E-06  
   2.96625000000E+06; -1.32385E-06  ; 5.87529E-06  
   2.96793750000E+06; -3.09052E-06  ; 5.5549E-06   
   2.96962500000E+06; -9.44448E-07  ; 4.59573E-06  
   2.97131250000E+06; -3.59392E-06  ; 9.13733E-06  
   2.97300000000E+06; -1.71319E-06  ; 6.88786E-06  
   2.97468750000E+06; -3.7867E-07   ; 7.60496E-06  
   2.97637500000E+06; -2.05195E-06  ; 5.21862E-06  
   2.97806250000E+06; -2.0666E-06   ; 8.66325E-06  
   2.97975000000E+06; -4.56779E-07  ; 7.74581E-06  
   2.98143750000E+06; -1.18888E-06  ; 7.35598E-06  
   2.98312500000E+06; -3.67506E-06  ; 5.88854E-06  
   2.98481250000E+06; -3.45888E-06  ; 5.86396E-06  
   2.98650000000E+06; -1.74521E-06  ; 7.333E-06    
   2.98818750000E+06; -1.62452E-06  ; 8.11389E-06  
   2.98987500000E+06; -1.95485E-07  ; 5.28744E-06  
   2.99156250000E+06; -2.02689E-06  ; 7.81904E-06  
   2.99325000000E+06; -7.44711E-07  ; 1.00239E-05  
   2.99493750000E+06; -1.10309E-07  ; 6.62964E-06  
   2.99662500000E+06; -1.92797E-06  ; 6.68329E-06  
   2.99831250000E+06; -9.85966E-07  ; 8.15571E-06  
   3.00000000000E+06;  1.26535E-06  ; 6.18231E-06  
