
  ZVRE, 2.05

  stimulus-start        ; stimulus-stop       ; stimulus-unit       ; nof-points; parameter-type; impedance-ohm
  3.00000000000E+05     ; 3.00000000000E+06   ; Hz                  ; 1601      ; RATIO_B2_B1   ; 50        

  conversion            ; time-domain         ; data-format         ; param-unit; smoothing     ; trace-math
  none                  ; none                ; RI                  ; none      ; none          ; none

  sweep-mode-type       ; notlinear-meas-mode 
  FUNDAMENTAL           ; none                


  freq              ;  reRATIO_B2_B ; imRATIO_B2_B  
   3.00000000000E+05; -1.21927E-08  ; 8.52096E-07  
   3.01687500000E+05; -2.39991E-07  ;-1.18799E-06  
   3.03375000000E+05; -1.09021E-06  ;-1.75099E-07  
   3.05062500000E+05; -3.1418E-06   ; 1.38673E-06  
   3.06750000000E+05;  3.17503E-07  ;-1.30779E-06  
   3.08437500000E+05;  2.36696E-06  ; 2.10869E-06  
   3.10125000000E+05;  8.99255E-07  ;-2.23655E-06  
   3.11812500000E+05; -1.26721E-07  ; 1.06181E-06  
   3.13500000000E+05;  5.15327E-07  ;-2.08222E-07  
   3.15187500000E+05; -1.08978E-06  ; 5.8419E-07   
   3.16875000000E+05;  3.76628E-07  ; 2.3804E-06   
   3.18562500000E+05; -1.18977E-06  ; 1.22855E-07  
   3.20250000000E+05; -3.64517E-06  ;-8.1966E-07   
   3.21937500000E+05; -2.82562E-06  ; 1.53483E-06  
   3.23625000000E+05; -8.09694E-08  ; 7.80354E-07  
   3.25312500000E+05;  2.73853E-06  ; 1.44886E-06  
   3.27000000000E+05;  2.01779E-06  ;-4.45404E-07  
   3.28687500000E+05;  6.87159E-07  ;-2.2668E-06   
   3.30375000000E+05;  1.34246E-06  ; 1.49293E-06  
   3.32062500000E+05;  1.40966E-06  ; 2.38524E-06  
   3.33750000000E+05; -1.09505E-06  ;-2.86236E-07  
   3.35437500000E+05; -2.35585E-06  ; 1.63529E-06  
   3.37125000000E+05; -3.11153E-06  ; 2.53381E-06  
   3.38812500000E+05; -1.72131E-06  ; 7.68178E-07  
   3.40500000000E+05;  1.95122E-06  ; 2.6704E-06   
   3.42187500000E+05;  1.34753E-07  ; 2.05308E-06  
   3.43875000000E+05; -3.39382E-08  ; 1.38938E-06  
   3.45562500000E+05;  3.08923E-07  ; 2.0327E-06   
   3.47250000000E+05;  2.60051E-06  ; 1.02112E-07  
   3.48937500000E+05; -1.22278E-06  ; 1.41102E-06  
   3.50625000000E+05; -3.20631E-06  ; 3.02335E-06  
   3.52312500000E+05;  6.91807E-08  ; 4.69497E-07  
   3.54000000000E+05;  1.54593E-06  ; 9.96868E-07  
   3.55687500000E+05; -7.02329E-07  ; 1.25899E-06  
   3.57375000000E+05;  3.76074E-07  ;-9.82112E-07  
   3.59062500000E+05;  9.17825E-07  ;-8.66382E-07  
   3.60750000000E+05; -1.41794E-06  ; 3.1328E-06   
   3.62437500000E+05;  1.51364E-06  ; 1.00518E-06  
   3.64125000000E+05; -1.08699E-06  ;-1.71253E-07  
   3.65812500000E+05; -1.21138E-06  ; 9.6852E-07   
   3.67500000000E+05; -1.25528E-06  ; 1.09402E-06  
   3.69187500000E+05; -5.85858E-08  ; 1.92617E-06  
   3.70875000000E+05;  5.15453E-07  ;-3.96868E-07  
   3.72562500000E+05;  1.50987E-06  ;-7.91202E-07  
   3.74250000000E+05; -2.27734E-06  ; 2.12689E-06  
   3.75937500000E+05;  1.31401E-06  ;-2.36358E-06  
   3.77625000000E+05; -4.00983E-06  ; 4.52764E-07  
   3.79312500000E+05; -2.00074E-07  ; 1.86829E-06  
   3.81000000000E+05; -3.78547E-07  ; 8.2842E-07   
   3.82687500000E+05; -1.05988E-06  ; 5.93313E-07  
   3.84375000000E+05;  4.31922E-07  ; 5.53829E-07  
   3.86062500000E+05; -1.96607E-07  ; 1.45694E-06  
   3.87750000000E+05;  2.2531E-06   ; 1.63398E-06  
   3.89437500000E+05; -2.16288E-06  ; 3.54968E-07  
   3.91125000000E+05;  1.05506E-06  ; 2.59996E-06  
   3.92812500000E+05; -1.76202E-06  ; 3.20204E-07  
   3.94500000000E+05;  1.55099E-06  ; 2.27823E-06  
   3.96187500000E+05;  2.52429E-06  ; 9.63354E-07  
   3.97875000000E+05;  3.58356E-07  ;-2.25453E-06  
   3.99562500000E+05;  1.43959E-06  ; 3.13972E-06  
   4.01250000000E+05;  7.88322E-07  ; 2.06093E-06  
   4.02937500000E+05; -3.52516E-07  ; 1.87104E-08  
   4.04625000000E+05; -1.61859E-06  ;-4.39922E-08  
   4.06312500000E+05; -6.4353E-07   ; 2.20856E-06  
   4.08000000000E+05; -7.16304E-07  ; 1.45794E-06  
   4.09687500000E+05;  8.58755E-07  ; 1.39161E-06  
   4.11375000000E+05;  1.48549E-06  ; 5.88653E-07  
   4.13062500000E+05; -3.22261E-06  ; 1.52911E-06  
   4.14750000000E+05; -5.53542E-07  ; 1.57724E-06  
   4.16437500000E+05;  1.39837E-06  ;-1.93733E-07  
   4.18125000000E+05; -1.1669E-06   ;-2.66054E-06  
   4.19812500000E+05; -4.11276E-06  ;-8.85975E-07  
   4.21500000000E+05;  6.08557E-07  ; 2.07383E-06  
   4.23187500000E+05;  2.00067E-06  ; 1.41969E-06  
   4.24875000000E+05; -1.33515E-07  ; 1.95629E-07  
   4.26562500000E+05; -1.09367E-06  ; 1.03997E-06  
   4.28250000000E+05; -1.02461E-07  ; 1.15716E-06  
   4.29937500000E+05;  7.07141E-07  ; 1.32423E-06  
   4.31625000000E+05;  2.89789E-08  ; 9.71756E-07  
   4.33312500000E+05;  5.2441E-07   ; 2.12567E-06  
   4.35000000000E+05;  3.07604E-07  ; 2.37416E-06  
   4.36687500000E+05; -3.79823E-07  ; 3.90992E-06  
   4.38375000000E+05;  3.09001E-07  ;-1.22829E-06  
   4.40062500000E+05;  2.87767E-06  ;-5.53991E-07  
   4.41750000000E+05; -1.71074E-06  ; 2.09458E-06  
   4.43437500000E+05; -2.28031E-06  ; 2.09232E-06  
   4.45125000000E+05;  1.50068E-06  ; 1.5155E-06   
   4.46812500000E+05; -2.67881E-06  ; 8.96719E-07  
   4.48500000000E+05; -6.51301E-07  ;-1.81115E-07  
   4.50187500000E+05;  3.97761E-07  ; 4.37934E-06  
   4.51875000000E+05; -2.06782E-06  ; 3.00824E-06  
   4.53562500000E+05; -1.88921E-06  ;-1.13031E-06  
   4.55250000000E+05; -1.95254E-06  ;-1.32033E-07  
   4.56937500000E+05;  8.75103E-07  ; 2.96577E-07  
   4.58625000000E+05; -3.86187E-07  ; 2.04285E-06  
   4.60312500000E+05; -1.8892E-06   ; 2.57397E-06  
   4.62000000000E+05; -2.07719E-06  ; 2.7167E-06   
   4.63687500000E+05; -3.10176E-06  ; 9.40645E-07  
   4.65375000000E+05; -1.01687E-06  ; 2.54191E-06  
   4.67062500000E+05;  1.41673E-06  ; 1.65994E-06  
   4.68750000000E+05;  1.62015E-06  ;-2.01215E-07  
   4.70437500000E+05; -1.27291E-06  ; 1.02373E-06  
   4.72125000000E+05; -2.21162E-06  ; 1.52577E-06  
   4.73812500000E+05; -1.34648E-06  ; 2.90014E-06  
   4.75500000000E+05;  1.87586E-07  ; 2.24316E-06  
   4.77187500000E+05;  1.00121E-06  ; 8.92163E-07  
   4.78875000000E+05; -8.97738E-07  ; 1.98212E-06  
   4.80562500000E+05;  6.16004E-07  ; 1.54206E-06  
   4.82250000000E+05; -6.94609E-07  ; 2.66665E-06  
   4.83937500000E+05; -1.31212E-06  ; 6.37717E-08  
   4.85625000000E+05; -2.12369E-06  ;-1.82982E-06  
   4.87312500000E+05; -8.038E-07    ; 1.25993E-06  
   4.89000000000E+05; -1.68104E-06  ; 9.29099E-07  
   4.90687500000E+05; -1.27003E-06  ; 6.61478E-08  
   4.92375000000E+05; -1.80389E-07  ; 1.83942E-06  
   4.94062500000E+05; -2.85419E-06  ; 8.00573E-07  
   4.95750000000E+05; -1.37098E-06  ; 2.16288E-06  
   4.97437500000E+05; -9.06422E-08  ; 2.4323E-06   
   4.99125000000E+05;  1.04673E-06  ; 6.40281E-07  
   5.00812500000E+05; -1.13093E-06  ; 2.31836E-06  
   5.02500000000E+05; -1.27541E-06  ; 1.88234E-06  
   5.04187500000E+05; -3.77227E-07  ; 3.24238E-06  
   5.05875000000E+05;  1.24285E-06  ; 2.35503E-06  
   5.07562500000E+05;  3.07719E-07  ; 2.22411E-06  
   5.09250000000E+05; -2.80052E-07  ; 2.94818E-06  
   5.10937500000E+05; -1.1662E-07   ; 1.44452E-06  
   5.12625000000E+05;  1.00378E-06  ; 4.14329E-07  
   5.14312500000E+05; -9.07367E-07  ; 2.13234E-06  
   5.16000000000E+05; -8.89842E-08  ; 9.70829E-07  
   5.17687500000E+05; -1.60443E-07  ; 5.24749E-07  
   5.19375000000E+05; -1.65138E-07  ;-1.99107E-06  
   5.21062500000E+05;  1.17597E-06  ; 1.33396E-06  
   5.22750000000E+05;  3.63791E-07  ; 2.16239E-06  
   5.24437500000E+05;  1.1736E-06   ; 1.25296E-06  
   5.26125000000E+05;  1.13966E-06  ; 2.78712E-06  
   5.27812500000E+05; -1.53834E-06  ; 3.93955E-06  
   5.29500000000E+05; -1.89939E-06  ;-4.38708E-07  
   5.31187500000E+05;  3.89933E-07  ; 2.31983E-06  
   5.32875000000E+05; -2.39945E-06  ; 1.20484E-06  
   5.34562500000E+05;  3.65196E-07  ; 1.03447E-06  
   5.36250000000E+05; -1.91936E-06  ; 2.4308E-06   
   5.37937500000E+05; -8.18199E-07  ;-1.39291E-06  
   5.39625000000E+05; -1.13277E-06  ; 1.69617E-06  
   5.41312500000E+05; -3.4643E-07   ; 1.79554E-06  
   5.43000000000E+05;  1.6498E-07   ;-2.34585E-06  
   5.44687500000E+05;  1.21514E-06  ; 5.51385E-07  
   5.46375000000E+05; -1.55069E-07  ; 1.86207E-06  
   5.48062500000E+05;  1.32281E-07  ;-5.6577E-07   
   5.49750000000E+05; -3.03183E-06  ; 9.07726E-07  
   5.51437500000E+05; -9.37973E-07  ; 1.67506E-06  
   5.53125000000E+05; -2.24328E-06  ; 1.18436E-06  
   5.54812500000E+05; -8.43351E-07  ; 2.14932E-06  
   5.56500000000E+05; -7.15735E-07  ; 1.9961E-06   
   5.58187500000E+05;  3.23231E-07  ; 1.894E-06    
   5.59875000000E+05;  1.28318E-06  ;-1.44573E-07  
   5.61562500000E+05;  2.36299E-07  ;-1.26605E-06  
   5.63250000000E+05; -1.42484E-06  ; 1.38018E-06  
   5.64937500000E+05;  1.04543E-06  ; 1.34815E-06  
   5.66625000000E+05;  6.00949E-08  ; 5.01509E-07  
   5.68312500000E+05; -9.56937E-07  ; 2.528E-06    
   5.70000000000E+05;  4.74716E-08  ; 3.40121E-07  
   5.71687500000E+05;  1.13669E-06  ; 1.78403E-06  
   5.73375000000E+05; -1.78007E-06  ; 4.7005E-07   
   5.75062500000E+05; -5.05317E-07  ; 8.58232E-07  
   5.76750000000E+05; -1.44863E-06  ; 6.80787E-07  
   5.78437500000E+05;  1.49995E-08  ; 9.12499E-07  
   5.80125000000E+05;  3.05287E-07  ; 1.65574E-06  
   5.81812500000E+05; -2.30228E-07  ; 8.7202E-07   
   5.83500000000E+05; -7.05133E-07  ; 2.04187E-06  
   5.85187500000E+05; -1.18056E-06  ; 1.67192E-06  
   5.86875000000E+05;  4.7258E-07   ; 2.22307E-06  
   5.88562500000E+05; -1.05222E-06  ; 1.9039E-06   
   5.90250000000E+05;  5.2234E-07   ; 2.91355E-07  
   5.91937500000E+05;  1.46664E-06  ; 1.31049E-06  
   5.93625000000E+05; -4.42812E-07  ; 2.19664E-06  
   5.95312500000E+05; -7.97284E-08  ; 2.99949E-06  
   5.97000000000E+05; -3.98053E-07  ; 1.19062E-06  
   5.98687500000E+05; -1.31882E-06  ; 1.25513E-06  
   6.00375000000E+05;  6.50506E-07  ; 1.08291E-06  
   6.02062500000E+05; -3.79687E-07  ; 1.41863E-06  
   6.03750000000E+05; -1.37855E-06  ; 3.28035E-06  
   6.05437500000E+05; -1.93253E-06  ; 1.00379E-06  
   6.07125000000E+05; -8.73802E-07  ; 9.92366E-07  
   6.08812500000E+05;  3.46149E-07  ;-8.13156E-07  
   6.10500000000E+05; -8.58126E-07  ; 3.56149E-06  
   6.12187500000E+05; -4.99858E-07  ; 5.36115E-08  
   6.13875000000E+05; -3.18691E-07  ; 2.87633E-06  
   6.15562500000E+05; -6.6477E-07   ; 1.02564E-06  
   6.17250000000E+05;  1.66291E-06  ; 1.35863E-06  
   6.18937500000E+05;  7.30646E-08  ; 1.04201E-06  
   6.20625000000E+05;  3.88805E-07  ; 2.73228E-06  
   6.22312500000E+05;  2.29486E-06  ; 2.84907E-06  
   6.24000000000E+05; -1.65359E-06  ; 3.65516E-06  
   6.25687500000E+05;  2.08559E-07  ; 1.14446E-06  
   6.27375000000E+05; -5.1989E-07   ; 1.8343E-06   
   6.29062500000E+05;  1.24285E-07  ; 1.9644E-06   
   6.30750000000E+05;  2.51721E-07  ; 3.25484E-06  
   6.32437500000E+05; -1.76774E-06  ; 5.20898E-07  
   6.34125000000E+05; -9.28648E-07  ; 1.28715E-06  
   6.35812500000E+05;  2.28022E-07  ; 1.77294E-06  
   6.37500000000E+05;  2.1532E-06   ; 1.41769E-06  
   6.39187500000E+05; -1.08673E-06  ; 2.89278E-06  
   6.40875000000E+05;  7.74573E-07  ;-9.58924E-08  
   6.42562500000E+05; -1.04022E-06  ; 2.60591E-06  
   6.44250000000E+05; -6.26693E-08  ; 1.22742E-06  
   6.45937500000E+05; -1.24962E-06  ; 2.88632E-06  
   6.47625000000E+05;  1.05108E-07  ; 1.03667E-06  
   6.49312500000E+05; -1.10796E-06  ; 1.34506E-06  
   6.51000000000E+05; -8.42164E-07  ; 7.75846E-07  
   6.52687500000E+05; -1.23166E-06  ; 5.72703E-07  
   6.54375000000E+05; -5.79095E-07  ; 2.26351E-06  
   6.56062500000E+05; -1.98331E-07  ; 1.52062E-06  
   6.57750000000E+05; -9.34688E-07  ;-5.68807E-07  
   6.59437500000E+05; -1.41146E-06  ; 1.19239E-06  
   6.61125000000E+05;  2.4965E-06   ; 3.44923E-06  
   6.62812500000E+05;  1.48963E-07  ; 3.64269E-06  
   6.64500000000E+05; -1.59833E-06  ;-1.22021E-07  
   6.66187500000E+05;  3.99425E-08  ;-1.81312E-08  
   6.67875000000E+05; -1.80401E-06  ; 3.12187E-06  
   6.69562500000E+05; -8.34372E-07  ;-5.10559E-07  
   6.71250000000E+05;  5.92068E-07  ; 1.14259E-07  
   6.72937500000E+05; -2.84329E-07  ; 1.2005E-06   
   6.74625000000E+05; -6.03746E-07  ; 2.41777E-06  
   6.76312500000E+05; -1.0383E-06   ; 2.85659E-06  
   6.78000000000E+05; -9.10031E-07  ; 1.4478E-06   
   6.79687500000E+05; -7.89915E-07  ; 2.16656E-06  
   6.81375000000E+05;  1.63406E-07  ; 7.64276E-07  
   6.83062500000E+05; -7.6821E-07   ; 1.84662E-06  
   6.84750000000E+05; -1.57635E-06  ; 3.16145E-06  
   6.86437500000E+05; -1.33894E-06  ; 8.47205E-07  
   6.88125000000E+05;  1.11344E-06  ; 2.58225E-06  
   6.89812500000E+05;  2.78159E-06  ; 4.34943E-07  
   6.91500000000E+05; -2.08899E-06  ; 5.01555E-07  
   6.93187500000E+05; -6.51568E-07  ; 1.51586E-06  
   6.94875000000E+05; -1.26372E-06  ; 1.88599E-06  
   6.96562500000E+05; -6.72249E-07  ; 2.92705E-06  
   6.98250000000E+05; -1.58694E-06  ; 5.5909E-08   
   6.99937500000E+05; -5.89397E-07  ; 4.12347E-06  
   7.01625000000E+05; -2.37664E-06  ; 8.17442E-07  
   7.03312500000E+05; -1.90075E-06  ; 2.45431E-06  
   7.05000000000E+05;  6.05802E-07  ; 2.34554E-06  
   7.06687500000E+05; -5.51449E-07  ; 1.86084E-06  
   7.08375000000E+05;  9.41495E-07  ; 7.73781E-07  
   7.10062500000E+05; -6.07001E-07  ; 2.09931E-06  
   7.11750000000E+05;  2.30863E-08  ; 3.05472E-06  
   7.13437500000E+05; -2.71036E-06  ; 1.90038E-06  
   7.15125000000E+05; -2.67903E-07  ; 1.2221E-06   
   7.16812500000E+05; -5.68152E-07  ; 7.63678E-07  
   7.18500000000E+05;  3.69708E-07  ; 1.22246E-06  
   7.20187500000E+05;  5.5689E-08   ; 2.62719E-06  
   7.21875000000E+05;  6.04214E-07  ; 1.13073E-06  
   7.23562500000E+05; -7.64482E-07  ; 3.76598E-06  
   7.25250000000E+05;  3.51983E-08  ; 1.41476E-06  
   7.26937500000E+05;  3.05808E-07  ; 2.04284E-06  
   7.28625000000E+05;  1.1282E-06   ; 3.27552E-06  
   7.30312500000E+05; -5.09962E-07  ; 1.95887E-06  
   7.32000000000E+05; -4.69532E-07  ; 2.96827E-06  
   7.33687500000E+05; -1.06257E-06  ; 1.43685E-06  
   7.35375000000E+05; -1.88285E-06  ; 2.67281E-06  
   7.37062500000E+05;  7.31616E-07  ; 9.1536E-07   
   7.38750000000E+05;  7.03954E-07  ; 2.65972E-06  
   7.40437500000E+05; -1.58319E-06  ; 1.08218E-06  
   7.42125000000E+05;  8.16562E-07  ; 1.72114E-07  
   7.43812500000E+05; -1.67574E-06  ; 8.58711E-09  
   7.45500000000E+05;  8.96698E-10  ; 2.10899E-06  
   7.47187500000E+05; -1.8887E-06   ; 4.64627E-06  
   7.48875000000E+05; -1.87232E-07  ; 2.96927E-06  
   7.50562500000E+05; -4.92376E-07  ; 3.30948E-06  
   7.52250000000E+05; -1.17781E-06  ; 2.27715E-06  
   7.53937500000E+05; -1.20898E-07  ; 2.17692E-06  
   7.55625000000E+05;  7.42002E-07  ; 4.24873E-08  
   7.57312500000E+05;  1.00836E-07  ; 8.15408E-07  
   7.59000000000E+05;  7.88573E-07  ; 2.13369E-06  
   7.60687500000E+05;  9.38476E-07  ; 8.88014E-07  
   7.62375000000E+05;  2.19838E-06  ;-8.65582E-07  
   7.64062500000E+05; -1.3339E-06   ; 2.597E-06    
   7.65750000000E+05;  6.76817E-07  ; 2.00778E-06  
   7.67437500000E+05; -5.5362E-07   ; 1.98965E-06  
   7.69125000000E+05;  1.72374E-07  ; 3.07609E-06  
   7.70812500000E+05; -5.76875E-07  ; 2.87188E-06  
   7.72500000000E+05;  3.949E-07    ; 3.03899E-06  
   7.74187500000E+05;  3.53485E-07  ; 1.30976E-06  
   7.75875000000E+05; -8.891E-07    ; 2.24773E-06  
   7.77562500000E+05; -1.05901E-06  ; 2.69005E-06  
   7.79250000000E+05; -8.32201E-07  ; 3.12185E-06  
   7.80937500000E+05;  1.42573E-06  ; 3.13006E-06  
   7.82625000000E+05; -1.03421E-06  ; 1.50186E-06  
   7.84312500000E+05;  1.30915E-06  ; 1.54026E-06  
   7.86000000000E+05; -9.39611E-07  ; 1.08196E-06  
   7.87687500000E+05; -6.93991E-07  ; 2.74062E-06  
   7.89375000000E+05; -6.03201E-07  ; 1.68428E-06  
   7.91062500000E+05;  6.87925E-07  ; 1.55237E-06  
   7.92750000000E+05; -6.90247E-07  ; 2.45102E-06  
   7.94437500000E+05; -1.00607E-06  ; 2.20829E-06  
   7.96125000000E+05;  2.54147E-07  ; 2.47795E-06  
   7.97812500000E+05; -6.07174E-07  ; 2.11463E-06  
   7.99500000000E+05; -2.17639E-07  ; 1.04464E-06  
   8.01187500000E+05;  5.23742E-07  ; 3.16285E-06  
   8.02875000000E+05; -9.27226E-08  ; 1.98569E-06  
   8.04562500000E+05;  6.17294E-07  ; 2.46428E-06  
   8.06250000000E+05;  6.39675E-07  ; 2.54469E-06  
   8.07937500000E+05;  1.212E-06    ; 4.51436E-07  
   8.09625000000E+05; -4.9857E-07   ;-1.0753E-06   
   8.11312500000E+05; -2.73749E-06  ; 1.51915E-06  
   8.13000000000E+05; -1.13523E-06  ; 2.60788E-06  
   8.14687500000E+05; -6.7676E-07   ; 2.99401E-06  
   8.16375000000E+05; -1.91302E-07  ; 1.22135E-06  
   8.18062500000E+05; -1.07772E-06  ; 4.0657E-07   
   8.19750000000E+05;  1.34009E-07  ; 7.93543E-07  
   8.21437500000E+05; -1.48629E-06  ; 2.08931E-06  
   8.23125000000E+05;  6.00666E-08  ; 1.63202E-06  
   8.24812500000E+05;  1.05659E-06  ; 1.07316E-06  
   8.26500000000E+05; -2.63117E-06  ; 1.96173E-06  
   8.28187500000E+05; -4.0142E-07   ; 1.95757E-06  
   8.29875000000E+05; -1.39285E-06  ; 2.01806E-06  
   8.31562500000E+05;  1.59405E-06  ; 1.83635E-06  
   8.33250000000E+05; -1.70077E-06  ; 1.55653E-06  
   8.34937500000E+05; -3.63896E-07  ; 1.54467E-06  
   8.36625000000E+05; -1.21709E-06  ; 1.33207E-06  
   8.38312500000E+05; -1.32131E-06  ; 2.54725E-07  
   8.40000000000E+05; -6.10562E-07  ; 2.15923E-06  
   8.41687500000E+05;  5.02975E-09  ; 6.77847E-07  
   8.43375000000E+05; -3.02176E-07  ; 3.25314E-06  
   8.45062500000E+05;  3.56677E-07  ; 1.85613E-06  
   8.46750000000E+05;  2.08605E-08  ; 2.87986E-07  
   8.48437500000E+05; -9.89618E-08  ; 1.54181E-06  
   8.50125000000E+05; -1.45202E-06  ; 1.32059E-06  
   8.51812500000E+05; -4.007E-08    ; 2.43797E-06  
   8.53500000000E+05; -8.095E-07    ; 2.31437E-06  
   8.55187500000E+05; -1.94494E-06  ; 3.22542E-06  
   8.56875000000E+05; -1.22961E-06  ; 2.03463E-06  
   8.58562500000E+05; -4.76296E-07  ; 8.54694E-07  
   8.60250000000E+05;  2.63944E-07  ; 3.20462E-06  
   8.61937500000E+05; -1.63473E-06  ; 2.09632E-06  
   8.63625000000E+05;  4.88753E-07  ; 1.71995E-06  
   8.65312500000E+05;  5.55508E-07  ; 1.96402E-06  
   8.67000000000E+05; -3.08822E-08  ; 1.28418E-06  
   8.68687500000E+05; -7.06208E-08  ; 2.62406E-07  
   8.70375000000E+05; -1.8624E-06   ; 5.35194E-07  
   8.72062500000E+05;  2.37702E-07  ; 1.09445E-06  
   8.73750000000E+05;  5.08969E-08  ; 3.02023E-06  
   8.75437500000E+05;  4.06931E-07  ; 2.61467E-06  
   8.77125000000E+05;  6.59701E-07  ; 2.52534E-06  
   8.78812500000E+05; -1.79393E-06  ; 3.66644E-06  
   8.80500000000E+05;  6.94042E-07  ; 2.69811E-06  
   8.82187500000E+05;  2.40565E-07  ; 2.94499E-06  
   8.83875000000E+05;  9.99289E-07  ; 1.74971E-06  
   8.85562500000E+05; -3.45588E-07  ; 3.01431E-06  
   8.87250000000E+05; -5.92857E-07  ; 2.11113E-06  
   8.88937500000E+05; -1.11985E-06  ; 1.4139E-06   
   8.90625000000E+05; -7.37076E-07  ; 2.3193E-06   
   8.92312500000E+05; -1.44226E-06  ; 2.56967E-06  
   8.94000000000E+05; -4.12554E-07  ; 3.12355E-06  
   8.95687500000E+05; -1.12303E-06  ; 3.02041E-06  
   8.97375000000E+05;  5.56215E-08  ; 1.85986E-06  
   8.99062500000E+05;  1.26385E-06  ; 2.1264E-06   
   9.00750000000E+05; -3.29254E-07  ; 2.69712E-06  
   9.02437500000E+05;  7.92452E-07  ; 1.55087E-06  
   9.04125000000E+05; -6.47229E-08  ; 1.74107E-06  
   9.05812500000E+05;  2.07378E-07  ; 1.95839E-06  
   9.07500000000E+05;  7.1728E-07   ; 1.90855E-06  
   9.09187500000E+05; -1.48145E-06  ; 1.53722E-06  
   9.10875000000E+05; -9.64266E-08  ; 2.40075E-06  
   9.12562500000E+05; -9.48536E-07  ; 1.73266E-06  
   9.14250000000E+05; -2.16357E-06  ; 1.63039E-06  
   9.15937500000E+05; -1.47847E-06  ; 3.013E-06    
   9.17625000000E+05; -6.63375E-07  ; 2.36026E-06  
   9.19312500000E+05; -1.36142E-07  ; 2.82386E-06  
   9.21000000000E+05;  6.92304E-07  ; 2.91961E-06  
   9.22687500000E+05;  5.95297E-07  ; 1.57493E-06  
   9.24375000000E+05;  3.44983E-07  ; 3.41359E-06  
   9.26062500000E+05;  5.24276E-07  ; 2.64995E-06  
   9.27750000000E+05; -4.38457E-07  ; 1.53565E-06  
   9.29437500000E+05;  1.96406E-07  ; 1.35964E-06  
   9.31125000000E+05;  9.28442E-08  ; 2.45762E-06  
   9.32812500000E+05;  2.37026E-07  ; 4.1045E-06   
   9.34500000000E+05; -2.81003E-07  ; 2.20343E-06  
   9.36187500000E+05;  1.26304E-06  ; 2.986E-06    
   9.37875000000E+05;  2.27569E-07  ; 1.65757E-06  
   9.39562500000E+05; -1.52461E-06  ; 1.58765E-06  
   9.41250000000E+05; -4.71789E-07  ; 1.4917E-06   
   9.42937500000E+05;  5.52462E-07  ; 2.55803E-06  
   9.44625000000E+05; -1.10205E-06  ; 3.27416E-06  
   9.46312500000E+05; -3.36869E-07  ; 1.4695E-06   
   9.48000000000E+05;  9.77438E-08  ; 1.33007E-06  
   9.49687500000E+05; -5.45227E-07  ; 7.61038E-07  
   9.51375000000E+05;  6.00395E-07  ; 1.08204E-06  
   9.53062500000E+05; -1.60507E-06  ; 1.86071E-06  
   9.54750000000E+05; -8.7599E-07   ; 2.04373E-06  
   9.56437500000E+05; -1.75124E-06  ; 3.40075E-06  
   9.58125000000E+05; -1.07389E-06  ; 3.00462E-06  
   9.59812500000E+05; -2.08248E-07  ; 2.33762E-06  
   9.61500000000E+05;  1.37261E-06  ; 2.62496E-06  
   9.63187500000E+05; -4.69251E-07  ; 1.09136E-06  
   9.64875000000E+05;  8.14079E-07  ; 8.83654E-07  
   9.66562500000E+05; -6.50612E-07  ; 2.91166E-06  
   9.68250000000E+05;  7.5731E-07   ; 1.23493E-06  
   9.69937500000E+05; -4.15122E-07  ; 3.29159E-06  
   9.71625000000E+05;  7.58204E-07  ; 1.92025E-06  
   9.73312500000E+05;  6.79384E-07  ; 2.30949E-06  
   9.75000000000E+05;  6.16756E-07  ; 2.72742E-06  
   9.76687500000E+05; -1.95038E-08  ; 5.59273E-07  
   9.78375000000E+05; -4.45664E-07  ; 3.12021E-06  
   9.80062500000E+05; -9.07363E-07  ; 2.43085E-06  
   9.81750000000E+05;  2.1404E-07   ; 1.96815E-06  
   9.83437500000E+05;  1.24292E-07  ; 1.48835E-06  
   9.85125000000E+05;  8.39241E-07  ; 2.59078E-06  
   9.86812500000E+05;  9.31563E-07  ; 1.91802E-06  
   9.88500000000E+05; -1.43263E-06  ; 1.33131E-06  
   9.90187500000E+05; -1.60072E-06  ; 3.61854E-06  
   9.91875000000E+05;  6.50679E-07  ; 1.72047E-06  
   9.93562500000E+05;  2.79904E-08  ; 3.68927E-06  
   9.95250000000E+05;  8.8741E-07   ; 9.59384E-07  
   9.96937500000E+05; -3.25272E-07  ; 1.21342E-06  
   9.98625000000E+05;  2.91034E-08  ; 3.27445E-06  
   1.00031250000E+06;  2.96477E-07  ; 1.69295E-06  
   1.00200000000E+06; -5.36252E-07  ; 2.84325E-06  
   1.00368750000E+06;  4.87156E-07  ; 1.07356E-06  
   1.00537500000E+06;  3.34723E-07  ; 1.71652E-06  
   1.00706250000E+06;  4.64985E-07  ; 3.09787E-06  
   1.00875000000E+06; -6.72837E-07  ; 8.02083E-07  
   1.01043750000E+06; -7.54969E-07  ; 3.37723E-06  
   1.01212500000E+06; -2.09012E-07  ; 2.81969E-06  
   1.01381250000E+06;  7.7087E-07   ; 1.98413E-06  
   1.01550000000E+06;  1.14519E-07  ; 3.18973E-06  
   1.01718750000E+06; -1.03571E-06  ; 1.93866E-06  
   1.01887500000E+06;  3.99357E-08  ; 3.58126E-06  
   1.02056250000E+06; -9.89864E-07  ; 8.61433E-07  
   1.02225000000E+06; -2.00485E-06  ; 4.46755E-07  
   1.02393750000E+06; -9.07631E-07  ; 2.99049E-06  
   1.02562500000E+06;  7.58961E-07  ; 2.90228E-06  
   1.02731250000E+06;  5.31405E-07  ; 2.56151E-06  
   1.02900000000E+06; -4.47606E-07  ; 3.03529E-06  
   1.03068750000E+06;  1.51316E-06  ; 2.31127E-06  
   1.03237500000E+06;  2.40203E-07  ; 1.38273E-06  
   1.03406250000E+06;  1.57576E-06  ; 1.63168E-06  
   1.03575000000E+06; -2.88193E-08  ; 1.5559E-06   
   1.03743750000E+06; -1.37805E-06  ; 3.07343E-06  
   1.03912500000E+06;  3.79647E-07  ; 2.7178E-06   
   1.04081250000E+06; -4.01162E-07  ; 3.60352E-06  
   1.04250000000E+06;  1.25004E-06  ; 2.54594E-06  
   1.04418750000E+06;  1.68815E-07  ; 9.68742E-07  
   1.04587500000E+06;  3.93684E-07  ; 1.57899E-06  
   1.04756250000E+06;  8.28054E-07  ; 1.9129E-06   
   1.04925000000E+06; -5.47502E-09  ; 2.79762E-06  
   1.05093750000E+06;  5.06629E-08  ; 1.71665E-06  
   1.05262500000E+06;  1.51279E-07  ; 2.34048E-06  
   1.05431250000E+06;  1.46053E-06  ; 3.27553E-06  
   1.05600000000E+06;  3.83118E-07  ; 1.01102E-06  
   1.05768750000E+06; -1.1397E-06   ; 2.66265E-06  
   1.05937500000E+06;  2.65492E-07  ; 3.37907E-06  
   1.06106250000E+06; -1.50809E-06  ; 2.55555E-06  
   1.06275000000E+06; -2.60712E-08  ; 3.2854E-06   
   1.06443750000E+06; -5.3207E-07   ; 1.22039E-06  
   1.06612500000E+06; -1.50906E-06  ; 9.44653E-07  
   1.06781250000E+06;  1.46202E-07  ; 3.24297E-06  
   1.06950000000E+06; -1.22952E-07  ; 2.90293E-06  
   1.07118750000E+06; -2.33653E-06  ; 1.23108E-06  
   1.07287500000E+06;  9.02574E-07  ; 1.64715E-06  
   1.07456250000E+06; -3.06962E-07  ; 2.42532E-06  
   1.07625000000E+06; -2.52992E-07  ; 2.4847E-06   
   1.07793750000E+06;  3.30304E-07  ; 3.39289E-06  
   1.07962500000E+06; -3.62944E-07  ; 3.34996E-06  
   1.08131250000E+06; -1.26291E-06  ; 3.13584E-06  
   1.08300000000E+06;  2.08832E-07  ; 2.38403E-06  
   1.08468750000E+06;  1.60463E-06  ;-5.05145E-07  
   1.08637500000E+06; -1.49311E-06  ; 2.15713E-06  
   1.08806250000E+06;  8.84182E-07  ; 8.09105E-07  
   1.08975000000E+06; -4.57819E-08  ; 2.72381E-06  
   1.09143750000E+06; -1.21647E-06  ; 2.31135E-06  
   1.09312500000E+06; -6.61108E-07  ; 4.18509E-07  
   1.09481250000E+06;  9.20706E-09  ; 3.21605E-06  
   1.09650000000E+06; -5.66214E-07  ; 2.20607E-06  
   1.09818750000E+06; -2.36527E-07  ; 2.3376E-06   
   1.09987500000E+06;  4.09309E-07  ; 2.70457E-06  
   1.10156250000E+06;  7.22356E-07  ; 2.15157E-06  
   1.10325000000E+06; -7.08406E-07  ; 3.23738E-06  
   1.10493750000E+06; -4.25964E-08  ; 1.29519E-06  
   1.10662500000E+06; -8.88874E-08  ; 9.96761E-07  
   1.10831250000E+06; -6.89345E-07  ; 3.78298E-06  
   1.11000000000E+06; -6.00085E-07  ; 3.03094E-06  
   1.11168750000E+06; -1.37245E-06  ; 1.87024E-06  
   1.11337500000E+06; -4.66015E-07  ; 2.65459E-06  
   1.11506250000E+06; -1.55923E-07  ; 2.0455E-06   
   1.11675000000E+06; -7.81342E-08  ; 1.5636E-06   
   1.11843750000E+06; -1.05621E-07  ; 2.47527E-06  
   1.12012500000E+06; -1.26702E-06  ; 8.4161E-07   
   1.12181250000E+06; -1.41956E-06  ; 1.81987E-06  
   1.12350000000E+06;  5.5727E-07   ; 3.21847E-06  
   1.12518750000E+06; -2.36931E-07  ; 1.55295E-06  
   1.12687500000E+06; -1.02807E-07  ; 2.76178E-06  
   1.12856250000E+06; -5.60722E-07  ; 2.53932E-06  
   1.13025000000E+06; -1.16838E-06  ; 2.77993E-06  
   1.13193750000E+06; -9.78272E-07  ; 3.56196E-06  
   1.13362500000E+06;  1.05066E-06  ; 1.91074E-06  
   1.13531250000E+06; -2.49437E-07  ; 2.28994E-06  
   1.13700000000E+06; -2.09965E-07  ; 3.51721E-06  
   1.13868750000E+06; -6.36017E-07  ; 3.93132E-06  
   1.14037500000E+06; -1.65624E-06  ; 3.61584E-06  
   1.14206250000E+06;  3.59248E-07  ; 4.68032E-06  
   1.14375000000E+06;  2.8045E-07   ; 2.58611E-06  
   1.14543750000E+06;  3.4497E-07   ; 1.53775E-06  
   1.14712500000E+06; -6.78224E-08  ; 3.17179E-06  
   1.14881250000E+06;  1.23888E-06  ; 8.83913E-07  
   1.15050000000E+06; -1.48914E-06  ; 3.60788E-06  
   1.15218750000E+06; -5.53586E-08  ; 1.6151E-06   
   1.15387500000E+06;  1.95099E-07  ; 2.15808E-06  
   1.15556250000E+06; -1.01529E-06  ; 2.818E-06    
   1.15725000000E+06; -9.63665E-07  ; 1.64035E-06  
   1.15893750000E+06; -1.45532E-06  ; 3.40533E-06  
   1.16062500000E+06;  9.05221E-07  ; 1.91249E-06  
   1.16231250000E+06; -6.77125E-07  ; 2.20407E-06  
   1.16400000000E+06; -1.65914E-06  ; 3.20695E-06  
   1.16568750000E+06;  1.52134E-07  ; 2.76629E-06  
   1.16737500000E+06; -2.45948E-06  ; 2.88811E-06  
   1.16906250000E+06; -7.79336E-07  ; 3.08014E-06  
   1.17075000000E+06; -9.49719E-07  ; 2.17984E-06  
   1.17243750000E+06;  1.37737E-07  ; 2.93792E-06  
   1.17412500000E+06; -6.92311E-07  ; 2.36982E-06  
   1.17581250000E+06; -7.33405E-07  ; 1.93229E-06  
   1.17750000000E+06; -1.09187E-06  ; 3.88938E-06  
   1.17918750000E+06; -2.23368E-07  ; 2.06632E-06  
   1.18087500000E+06; -1.18042E-07  ; 1.7443E-06   
   1.18256250000E+06; -7.52892E-07  ; 7.52732E-07  
   1.18425000000E+06; -1.02325E-06  ; 2.6475E-06   
   1.18593750000E+06; -2.29225E-06  ; 4.12487E-06  
   1.18762500000E+06;  1.04133E-06  ; 2.18097E-06  
   1.18931250000E+06; -6.25503E-07  ; 2.63854E-06  
   1.19100000000E+06; -1.13506E-06  ; 3.98008E-06  
   1.19268750000E+06; -4.38173E-07  ; 3.2432E-06   
   1.19437500000E+06; -1.28926E-06  ; 2.28334E-06  
   1.19606250000E+06; -1.89825E-06  ; 3.3651E-06   
   1.19775000000E+06; -1.14839E-06  ; 2.76583E-06  
   1.19943750000E+06; -1.8929E-07   ; 2.58005E-06  
   1.20112500000E+06; -7.4277E-07   ; 1.9827E-06   
   1.20281250000E+06;  2.11995E-07  ; 2.68861E-06  
   1.20450000000E+06;  2.3759E-07   ; 3.42607E-06  
   1.20618750000E+06;  2.48674E-07  ; 2.53297E-06  
   1.20787500000E+06; -2.76125E-07  ; 2.40058E-06  
   1.20956250000E+06; -2.04943E-06  ; 3.35127E-06  
   1.21125000000E+06; -3.31341E-07  ; 3.03286E-06  
   1.21293750000E+06;  6.31778E-07  ; 2.20107E-06  
   1.21462500000E+06;  9.53027E-07  ; 3.41525E-06  
   1.21631250000E+06; -1.10304E-06  ; 2.11641E-06  
   1.21800000000E+06; -2.34909E-06  ; 4.16307E-06  
   1.21968750000E+06; -1.3076E-06   ; 2.88078E-06  
   1.22137500000E+06; -1.56651E-06  ; 2.34161E-06  
   1.22306250000E+06; -2.20411E-06  ; 2.75728E-06  
   1.22475000000E+06;  1.98826E-07  ; 3.65721E-06  
   1.22643750000E+06; -7.14429E-07  ; 3.45717E-06  
   1.22812500000E+06; -1.49622E-06  ; 2.78225E-06  
   1.22981250000E+06;  8.79099E-07  ; 1.95267E-06  
   1.23150000000E+06; -1.69543E-06  ; 2.54175E-06  
   1.23318750000E+06;  4.84609E-07  ; 2.45174E-06  
   1.23487500000E+06; -1.21307E-06  ; 1.66357E-06  
   1.23656250000E+06; -5.24344E-07  ; 3.38048E-06  
   1.23825000000E+06;  1.81674E-07  ; 3.41239E-06  
   1.23993750000E+06;  5.91313E-07  ; 2.8272E-06   
   1.24162500000E+06; -1.0439E-06   ; 3.44187E-06  
   1.24331250000E+06;  5.8534E-07   ; 3.01075E-06  
   1.24500000000E+06;  8.21591E-07  ; 3.66596E-06  
   1.24668750000E+06;  1.92507E-07  ; 2.07574E-06  
   1.24837500000E+06;  1.3766E-07   ; 3.20183E-06  
   1.25006250000E+06; -7.4431E-07   ; 2.98028E-06  
   1.25175000000E+06; -9.52585E-07  ; 3.79953E-06  
   1.25343750000E+06; -3.20355E-07  ; 1.76814E-06  
   1.25512500000E+06; -1.42279E-07  ; 3.43175E-06  
   1.25681250000E+06; -8.7589E-07   ; 1.9329E-06   
   1.25850000000E+06; -2.52771E-07  ; 2.70575E-06  
   1.26018750000E+06; -8.1826E-07   ; 1.22308E-06  
   1.26187500000E+06;  3.9511E-07   ; 4.28803E-06  
   1.26356250000E+06;  3.33004E-07  ; 3.47157E-06  
   1.26525000000E+06; -4.26807E-07  ; 2.57854E-06  
   1.26693750000E+06; -3.53177E-07  ; 2.9975E-06   
   1.26862500000E+06; -1.01169E-06  ; 4.25133E-06  
   1.27031250000E+06; -8.60185E-07  ; 2.4384E-06   
   1.27200000000E+06; -7.2924E-07   ; 2.70882E-06  
   1.27368750000E+06; -2.08913E-06  ; 2.76033E-06  
   1.27537500000E+06; -1.02381E-06  ; 3.42865E-06  
   1.27706250000E+06; -2.3254E-07   ; 1.07669E-06  
   1.27875000000E+06; -1.32852E-06  ; 3.63035E-06  
   1.28043750000E+06; -5.32129E-07  ; 3.449E-06    
   1.28212500000E+06; -1.82236E-06  ; 3.82359E-06  
   1.28381250000E+06; -6.48742E-07  ; 2.40475E-06  
   1.28550000000E+06; -6.8756E-09   ; 5.44703E-06  
   1.28718750000E+06; -1.20975E-06  ; 3.12036E-06  
   1.28887500000E+06; -9.22975E-08  ; 1.14463E-06  
   1.29056250000E+06;  4.76567E-07  ; 3.40099E-06  
   1.29225000000E+06;  5.25307E-07  ; 3.75575E-06  
   1.29393750000E+06;  2.35162E-07  ; 3.41509E-06  
   1.29562500000E+06; -1.28044E-07  ; 2.08243E-06  
   1.29731250000E+06;  1.39904E-06  ; 2.73064E-06  
   1.29900000000E+06; -7.66789E-07  ; 4.9505E-06   
   1.30068750000E+06; -6.00339E-07  ; 3.42164E-06  
   1.30237500000E+06;  7.38577E-07  ; 2.8134E-06   
   1.30406250000E+06; -6.27171E-07  ; 3.27942E-06  
   1.30575000000E+06; -1.42775E-06  ; 3.09313E-06  
   1.30743750000E+06; -6.71499E-07  ; 3.09537E-06  
   1.30912500000E+06;  5.13558E-07  ; 3.07344E-06  
   1.31081250000E+06; -1.19483E-07  ; 2.48124E-06  
   1.31250000000E+06; -3.69899E-06  ; 2.71677E-06  
   1.31418750000E+06;  5.5111E-07   ; 3.39792E-06  
   1.31587500000E+06; -7.80216E-07  ; 2.67291E-06  
   1.31756250000E+06; -1.46743E-06  ; 1.89181E-06  
   1.31925000000E+06; -1.55896E-07  ; 1.95485E-06  
   1.32093750000E+06;  9.94863E-08  ; 3.43695E-06  
   1.32262500000E+06;  7.74881E-08  ; 3.09127E-06  
   1.32431250000E+06; -1.17875E-06  ; 2.96939E-06  
   1.32600000000E+06; -1.55451E-08  ; 3.22417E-06  
   1.32768750000E+06;  7.87815E-08  ; 4.27418E-06  
   1.32937500000E+06; -5.82035E-07  ; 3.0629E-06   
   1.33106250000E+06; -1.75273E-07  ; 3.22588E-06  
   1.33275000000E+06; -6.39894E-07  ; 2.66818E-06  
   1.33443750000E+06; -1.56025E-06  ; 2.69324E-06  
   1.33612500000E+06; -1.96345E-06  ; 3.66281E-06  
   1.33781250000E+06; -7.90477E-07  ; 3.96986E-06  
   1.33950000000E+06; -8.71199E-07  ; 3.51629E-06  
   1.34118750000E+06; -3.44141E-07  ; 1.3113E-06   
   1.34287500000E+06;  8.41009E-07  ; 3.30322E-06  
   1.34456250000E+06; -1.15101E-06  ; 3.21647E-06  
   1.34625000000E+06;  5.24177E-07  ; 2.95009E-06  
   1.34793750000E+06; -1.42397E-06  ; 2.29597E-06  
   1.34962500000E+06; -1.40686E-06  ; 4.16065E-06  
   1.35131250000E+06; -7.08547E-07  ; 3.44209E-06  
   1.35300000000E+06; -3.44797E-07  ; 3.89768E-06  
   1.35468750000E+06; -3.76771E-07  ; 4.55985E-06  
   1.35637500000E+06; -1.37933E-06  ; 2.94599E-06  
   1.35806250000E+06; -1.94515E-06  ; 2.94772E-06  
   1.35975000000E+06;  2.03474E-06  ; 4.47796E-06  
   1.36143750000E+06;  3.89584E-07  ; 2.78005E-06  
   1.36312500000E+06; -9.35238E-07  ; 2.45605E-06  
   1.36481250000E+06;  1.04534E-06  ; 2.34717E-06  
   1.36650000000E+06;  1.13491E-07  ; 3.80139E-06  
   1.36818750000E+06; -4.27917E-07  ; 2.45471E-06  
   1.36987500000E+06; -3.02027E-07  ; 3.00236E-06  
   1.37156250000E+06;  8.66084E-08  ; 2.73266E-06  
   1.37325000000E+06; -1.1442E-06   ; 3.30744E-06  
   1.37493750000E+06;  1.18636E-06  ; 2.63356E-06  
   1.37662500000E+06; -1.5996E-06   ; 2.71947E-06  
   1.37831250000E+06; -2.06353E-06  ; 1.8771E-06   
   1.38000000000E+06; -1.41506E-06  ; 2.23672E-06  
   1.38168750000E+06; -9.5277E-07   ; 4.10606E-06  
   1.38337500000E+06; -2.48279E-06  ; 2.47953E-06  
   1.38506250000E+06;  7.48462E-07  ; 2.68486E-06  
   1.38675000000E+06; -6.20042E-07  ; 3.63741E-06  
   1.38843750000E+06; -8.53947E-07  ; 4.46122E-06  
   1.39012500000E+06; -1.00585E-06  ; 3.51359E-06  
   1.39181250000E+06;  1.22833E-06  ; 3.62828E-06  
   1.39350000000E+06; -2.00917E-06  ; 4.31674E-06  
   1.39518750000E+06; -1.03771E-06  ; 2.21224E-06  
   1.39687500000E+06; -1.73324E-06  ; 3.80272E-06  
   1.39856250000E+06;  1.14156E-06  ; 4.00881E-06  
   1.40025000000E+06; -1.12006E-06  ; 3.11066E-06  
   1.40193750000E+06; -1.12428E-07  ; 2.4708E-06   
   1.40362500000E+06; -2.12088E-06  ; 2.37722E-06  
   1.40531250000E+06;  1.02852E-06  ; 4.22772E-06  
   1.40700000000E+06;  8.11454E-08  ; 3.91304E-06  
   1.40868750000E+06; -3.03829E-08  ; 2.53823E-06  
   1.41037500000E+06; -1.25814E-07  ; 2.43082E-06  
   1.41206250000E+06; -1.56569E-06  ; 3.45627E-06  
   1.41375000000E+06; -5.52753E-07  ; 2.44809E-06  
   1.41543750000E+06; -9.34531E-07  ; 2.67973E-06  
   1.41712500000E+06; -2.10609E-06  ; 3.60934E-06  
   1.41881250000E+06;  5.60848E-07  ; 3.21163E-06  
   1.42050000000E+06; -1.59162E-06  ; 3.63529E-06  
   1.42218750000E+06; -2.38267E-06  ; 4.33169E-06  
   1.42387500000E+06;  2.18295E-07  ; 4.1217E-06   
   1.42556250000E+06; -3.94463E-07  ; 3.24844E-06  
   1.42725000000E+06; -1.70223E-06  ; 1.91241E-06  
   1.42893750000E+06; -1.22538E-06  ; 2.95666E-06  
   1.43062500000E+06; -1.07133E-06  ; 3.28693E-06  
   1.43231250000E+06; -7.6729E-08   ; 3.88187E-06  
   1.43400000000E+06; -2.47076E-07  ; 4.41258E-06  
   1.43568750000E+06; -1.95406E-06  ; 3.29633E-06  
   1.43737500000E+06; -6.64843E-07  ; 2.0319E-06   
   1.43906250000E+06;  6.76848E-07  ; 3.76812E-06  
   1.44075000000E+06; -8.04606E-07  ; 3.82026E-06  
   1.44243750000E+06; -6.32532E-07  ; 2.57302E-06  
   1.44412500000E+06; -1.47835E-06  ; 3.84432E-06  
   1.44581250000E+06; -1.41941E-06  ; 3.85919E-06  
   1.44750000000E+06;  6.80453E-07  ; 4.02433E-06  
   1.44918750000E+06;  6.59536E-07  ; 3.99538E-06  
   1.45087500000E+06; -6.53657E-07  ; 4.12131E-06  
   1.45256250000E+06;  9.7474E-08   ; 2.72757E-06  
   1.45425000000E+06; -1.81331E-06  ; 5.16862E-06  
   1.45593750000E+06; -4.18715E-07  ; 1.73232E-06  
   1.45762500000E+06;  1.66824E-07  ; 3.59708E-06  
   1.45931250000E+06; -1.11126E-06  ; 3.63093E-06  
   1.46100000000E+06; -1.37629E-06  ; 3.99707E-06  
   1.46268750000E+06;  4.58521E-07  ; 2.32668E-06  
   1.46437500000E+06; -3.64562E-07  ; 3.53494E-06  
   1.46606250000E+06; -1.02426E-06  ; 3.04703E-06  
   1.46775000000E+06;  4.97154E-08  ; 4.97117E-06  
   1.46943750000E+06; -1.80435E-06  ; 3.08662E-06  
   1.47112500000E+06;  6.79842E-08  ; 3.57176E-06  
   1.47281250000E+06;  5.104E-07    ; 4.35059E-06  
   1.47450000000E+06; -3.43163E-07  ; 4.21028E-06  
   1.47618750000E+06; -2.83583E-07  ; 3.80523E-06  
   1.47787500000E+06; -1.41038E-06  ; 3.27502E-06  
   1.47956250000E+06; -1.24867E-06  ; 3.85075E-06  
   1.48125000000E+06; -1.32772E-06  ; 4.65898E-06  
   1.48293750000E+06;  9.76603E-07  ; 1.9905E-06   
   1.48462500000E+06; -1.01125E-06  ; 3.37128E-06  
   1.48631250000E+06;  7.90446E-07  ; 3.61028E-06  
   1.48800000000E+06; -5.46378E-07  ; 4.38525E-06  
   1.48968750000E+06; -1.20992E-06  ; 3.09358E-06  
   1.49137500000E+06; -1.31899E-07  ; 3.5875E-06   
   1.49306250000E+06; -9.94249E-08  ; 3.01702E-06  
   1.49475000000E+06; -7.47153E-07  ; 4.15995E-06  
   1.49643750000E+06; -1.51842E-06  ; 2.97342E-06  
   1.49812500000E+06; -3.64042E-07  ; 2.62297E-06  
   1.49981250000E+06;  7.16251E-07  ; 1.97907E-06  
   1.50150000000E+06; -1.51704E-06  ; 3.32448E-06  
   1.50318750000E+06;  1.61658E-06  ; 4.3069E-06   
   1.50487500000E+06; -4.87219E-07  ; 2.33529E-06  
   1.50656250000E+06;  4.86773E-07  ; 4.81692E-06  
   1.50825000000E+06;  6.72523E-07  ; 4.59731E-06  
   1.50993750000E+06; -7.35522E-07  ; 2.88742E-06  
   1.51162500000E+06; -5.58247E-07  ; 3.90697E-06  
   1.51331250000E+06;  2.01654E-07  ; 3.57088E-06  
   1.51500000000E+06; -7.15989E-07  ; 4.37205E-06  
   1.51668750000E+06; -4.17957E-07  ; 5.89462E-06  
   1.51837500000E+06; -1.93569E-06  ; 2.95779E-06  
   1.52006250000E+06; -1.51826E-06  ; 3.34511E-06  
   1.52175000000E+06; -2.95132E-07  ; 1.98956E-06  
   1.52343750000E+06;  2.45746E-07  ; 4.76899E-06  
   1.52512500000E+06; -1.64077E-07  ; 3.4285E-06   
   1.52681250000E+06;  1.00727E-06  ; 2.69655E-06  
   1.52850000000E+06; -2.37062E-07  ; 3.24893E-06  
   1.53018750000E+06; -1.19601E-06  ; 2.04856E-06  
   1.53187500000E+06; -2.13823E-06  ; 3.54512E-06  
   1.53356250000E+06; -3.15649E-07  ; 3.10035E-06  
   1.53525000000E+06; -1.08243E-07  ; 3.89273E-06  
   1.53693750000E+06; -5.77365E-07  ; 5.59196E-06  
   1.53862500000E+06; -8.05819E-07  ; 2.40282E-06  
   1.54031250000E+06; -9.38966E-07  ; 4.22332E-06  
   1.54200000000E+06; -3.08646E-07  ; 3.15989E-06  
   1.54368750000E+06;  1.109E-08    ; 3.77502E-06  
   1.54537500000E+06; -2.14792E-06  ; 2.92637E-06  
   1.54706250000E+06; -6.10944E-07  ; 4.14428E-06  
   1.54875000000E+06; -1.21905E-06  ; 4.11125E-06  
   1.55043750000E+06; -1.10295E-06  ; 3.79321E-06  
   1.55212500000E+06; -1.46233E-06  ; 3.62517E-06  
   1.55381250000E+06; -7.53511E-08  ; 4.28929E-06  
   1.55550000000E+06; -9.00792E-07  ; 3.17815E-06  
   1.55718750000E+06;  1.30164E-06  ; 4.12068E-06  
   1.55887500000E+06; -3.09799E-07  ; 1.11441E-06  
   1.56056250000E+06; -1.21031E-06  ; 3.7328E-06   
   1.56225000000E+06;  1.1169E-06   ; 2.46474E-06  
   1.56393750000E+06; -1.60271E-06  ; 4.25251E-06  
   1.56562500000E+06; -6.16843E-07  ; 3.00859E-06  
   1.56731250000E+06; -1.47842E-06  ; 3.83268E-06  
   1.56900000000E+06; -2.0019E-07   ; 4.7266E-06   
   1.57068750000E+06; -5.81794E-07  ; 3.8765E-06   
   1.57237500000E+06;  3.64874E-07  ; 4.75096E-06  
   1.57406250000E+06; -6.84675E-07  ; 3.88389E-06  
   1.57575000000E+06; -1.0027E-06   ; 3.83705E-06  
   1.57743750000E+06;  8.57057E-10  ; 3.11885E-06  
   1.57912500000E+06;  1.01462E-06  ; 2.27597E-06  
   1.58081250000E+06; -2.40981E-07  ; 3.65234E-06  
   1.58250000000E+06; -2.22458E-07  ; 3.26822E-06  
   1.58418750000E+06; -7.42874E-07  ; 4.39354E-06  
   1.58587500000E+06;  5.30869E-07  ; 3.78658E-06  
   1.58756250000E+06; -1.11775E-06  ; 4.24397E-06  
   1.58925000000E+06; -1.36071E-06  ; 2.77138E-06  
   1.59093750000E+06; -4.63791E-07  ; 4.79148E-06  
   1.59262500000E+06; -4.55645E-07  ; 3.19182E-06  
   1.59431250000E+06; -1.07492E-06  ; 3.19281E-06  
   1.59600000000E+06; -1.6254E-06   ; 4.44642E-06  
   1.59768750000E+06;  1.32412E-06  ; 1.8433E-06   
   1.59937500000E+06; -7.33288E-07  ; 4.15071E-06  
   1.60106250000E+06; -2.94439E-07  ; 3.88603E-06  
   1.60275000000E+06; -9.06708E-07  ; 3.57943E-06  
   1.60443750000E+06; -1.10974E-06  ; 2.8583E-06   
   1.60612500000E+06; -1.55768E-06  ; 2.40287E-06  
   1.60781250000E+06; -7.14049E-07  ; 2.93616E-06  
   1.60950000000E+06; -1.25158E-06  ; 3.02841E-06  
   1.61118750000E+06; -1.80084E-07  ; 5.00649E-06  
   1.61287500000E+06; -2.76158E-07  ; 3.12683E-06  
   1.61456250000E+06;  1.64396E-08  ; 2.34255E-06  
   1.61625000000E+06; -7.04709E-07  ; 4.45868E-06  
   1.61793750000E+06;  9.55082E-08  ; 3.84398E-06  
   1.61962500000E+06; -8.71936E-07  ; 1.87256E-06  
   1.62131250000E+06; -1.62058E-06  ; 2.51712E-06  
   1.62300000000E+06; -3.6631E-07   ; 4.81032E-06  
   1.62468750000E+06; -7.62303E-07  ; 3.59689E-06  
   1.62637500000E+06;  3.93231E-07  ; 3.87322E-06  
   1.62806250000E+06; -1.42455E-06  ; 4.42002E-06  
   1.62975000000E+06; -1.17891E-06  ; 4.23383E-06  
   1.63143750000E+06; -3.03173E-07  ; 5.15815E-06  
   1.63312500000E+06;  5.61432E-07  ; 5.05104E-06  
   1.63481250000E+06; -1.3337E-06   ; 3.99589E-06  
   1.63650000000E+06;  4.80932E-07  ; 3.30477E-06  
   1.63818750000E+06; -3.66778E-07  ; 4.17496E-06  
   1.63987500000E+06; -7.18239E-07  ; 2.94288E-06  
   1.64156250000E+06;  8.17078E-07  ; 4.1698E-06   
   1.64325000000E+06; -2.66497E-07  ; 4.28263E-06  
   1.64493750000E+06; -4.73176E-07  ; 5.24607E-06  
   1.64662500000E+06; -2.78507E-07  ; 3.66606E-06  
   1.64831250000E+06; -1.957E-07    ; 5.06725E-06  
   1.65000000000E+06; -1.40442E-06  ; 2.69124E-06  
   1.65168750000E+06;  3.58596E-07  ; 2.85227E-06  
   1.65337500000E+06; -1.62865E-06  ; 4.68386E-06  
   1.65506250000E+06; -2.2156E-06   ; 3.86418E-06  
   1.65675000000E+06;  5.70683E-07  ; 3.38524E-06  
   1.65843750000E+06; -4.85051E-07  ; 3.54026E-06  
   1.66012500000E+06;  7.65067E-07  ; 3.985E-06    
   1.66181250000E+06; -9.99199E-07  ; 3.39736E-06  
   1.66350000000E+06; -3.79904E-07  ; 3.78101E-06  
   1.66518750000E+06; -2.28519E-06  ; 4.66775E-06  
   1.66687500000E+06; -1.7185E-06   ; 4.24989E-06  
   1.66856250000E+06; -1.1821E-06   ; 4.1113E-06   
   1.67025000000E+06; -9.83034E-07  ; 4.51404E-06  
   1.67193750000E+06; -2.65114E-06  ; 4.77217E-06  
   1.67362500000E+06; -1.50655E-06  ; 3.60081E-06  
   1.67531250000E+06; -5.19149E-07  ; 3.50534E-06  
   1.67700000000E+06; -1.25166E-06  ; 2.8166E-06   
   1.67868750000E+06; -1.08856E-06  ; 3.50077E-06  
   1.68037500000E+06; -1.17037E-06  ; 2.58072E-06  
   1.68206250000E+06; -1.39131E-06  ; 3.46707E-06  
   1.68375000000E+06;  3.15706E-07  ; 3.95394E-06  
   1.68543750000E+06; -3.52362E-06  ; 3.31227E-06  
   1.68712500000E+06;  2.55417E-07  ; 3.96175E-06  
   1.68881250000E+06; -2.01613E-06  ; 5.09863E-06  
   1.69050000000E+06;  7.58301E-07  ; 1.7731E-06   
   1.69218750000E+06; -7.32834E-08  ; 4.36039E-06  
   1.69387500000E+06; -2.08839E-06  ; 3.63222E-06  
   1.69556250000E+06; -6.75457E-07  ; 4.4482E-06   
   1.69725000000E+06; -5.67537E-07  ; 2.97568E-06  
   1.69893750000E+06; -1.39557E-06  ; 4.56865E-06  
   1.70062500000E+06; -8.94754E-07  ; 3.02588E-06  
   1.70231250000E+06;  1.09555E-07  ; 4.87113E-06  
   1.70400000000E+06; -1.61623E-07  ; 3.09935E-06  
   1.70568750000E+06;  4.688E-07    ; 4.45663E-06  
   1.70737500000E+06; -7.77861E-07  ; 3.10442E-06  
   1.70906250000E+06; -1.01884E-06  ; 3.13956E-06  
   1.71075000000E+06; -1.45801E-06  ; 4.54577E-06  
   1.71243750000E+06; -1.80173E-06  ; 4.05291E-06  
   1.71412500000E+06; -2.34467E-06  ; 4.95464E-06  
   1.71581250000E+06; -6.32344E-07  ; 4.12262E-06  
   1.71750000000E+06;  2.99164E-08  ; 3.55458E-06  
   1.71918750000E+06;  2.37879E-07  ; 3.77825E-06  
   1.72087500000E+06; -2.28276E-06  ; 4.03823E-06  
   1.72256250000E+06; -4.55564E-07  ; 3.94806E-06  
   1.72425000000E+06; -6.8243E-07   ; 3.89827E-06  
   1.72593750000E+06; -5.9108E-07   ; 4.66616E-06  
   1.72762500000E+06; -8.51794E-07  ; 4.40396E-06  
   1.72931250000E+06; -7.86539E-07  ; 3.78775E-06  
   1.73100000000E+06; -1.01281E-06  ; 3.93365E-06  
   1.73268750000E+06;  4.78415E-07  ; 2.67218E-06  
   1.73437500000E+06; -8.24265E-07  ; 3.9417E-06   
   1.73606250000E+06; -2.92913E-07  ; 2.57182E-06  
   1.73775000000E+06; -1.96827E-06  ; 3.5258E-06   
   1.73943750000E+06; -1.33703E-06  ; 4.16047E-06  
   1.74112500000E+06;  3.29583E-07  ; 3.27131E-06  
   1.74281250000E+06; -1.20867E-06  ; 4.42563E-06  
   1.74450000000E+06; -1.59839E-06  ; 3.64405E-06  
   1.74618750000E+06; -7.23192E-07  ; 4.09057E-06  
   1.74787500000E+06; -4.20289E-07  ; 3.94542E-06  
   1.74956250000E+06; -2.65773E-06  ; 4.04196E-06  
   1.75125000000E+06; -1.07074E-06  ; 3.5078E-06   
   1.75293750000E+06; -1.55377E-06  ; 3.84349E-06  
   1.75462500000E+06; -5.01711E-07  ; 3.34684E-06  
   1.75631250000E+06;  2.42134E-07  ; 3.07364E-06  
   1.75800000000E+06; -6.08888E-07  ; 4.52228E-06  
   1.75968750000E+06;  9.26857E-07  ; 4.46727E-06  
   1.76137500000E+06; -9.12347E-07  ; 4.32847E-06  
   1.76306250000E+06;  1.1147E-07   ; 4.29292E-06  
   1.76475000000E+06; -3.60563E-08  ; 3.44379E-06  
   1.76643750000E+06;  1.26295E-07  ; 3.24728E-06  
   1.76812500000E+06;  1.46496E-07  ; 4.05703E-06  
   1.76981250000E+06; -1.24116E-06  ; 5.21854E-06  
   1.77150000000E+06; -2.45613E-06  ; 3.52113E-06  
   1.77318750000E+06; -1.44873E-06  ; 3.65235E-06  
   1.77487500000E+06; -2.16228E-06  ; 3.10244E-06  
   1.77656250000E+06; -3.35985E-07  ; 2.61026E-06  
   1.77825000000E+06; -2.04958E-06  ; 3.50934E-06  
   1.77993750000E+06; -3.21397E-07  ; 4.68817E-06  
   1.78162500000E+06;  7.18033E-07  ; 5.06302E-06  
   1.78331250000E+06;  1.93021E-06  ; 4.88563E-06  
   1.78500000000E+06;  2.96362E-07  ; 4.66948E-06  
   1.78668750000E+06;  4.64343E-08  ; 4.28072E-06  
   1.78837500000E+06; -9.03685E-07  ; 4.38406E-06  
   1.79006250000E+06; -4.96023E-08  ; 3.47783E-06  
   1.79175000000E+06; -1.61706E-07  ; 4.16615E-06  
   1.79343750000E+06; -2.98629E-06  ; 3.63761E-06  
   1.79512500000E+06; -2.61442E-06  ; 5.43321E-06  
   1.79681250000E+06; -1.93906E-06  ; 3.88283E-06  
   1.79850000000E+06; -6.08741E-08  ; 4.46232E-06  
   1.80018750000E+06; -1.11134E-06  ; 4.83682E-06  
   1.80187500000E+06; -7.16758E-07  ; 4.31879E-06  
   1.80356250000E+06; -1.01395E-06  ; 3.84188E-06  
   1.80525000000E+06; -8.365E-07    ; 4.99124E-06  
   1.80693750000E+06;  4.64718E-07  ; 3.6507E-06   
   1.80862500000E+06; -5.9095E-07   ; 3.87994E-06  
   1.81031250000E+06; -1.83505E-06  ; 4.06154E-06  
   1.81200000000E+06;  8.83326E-07  ; 3.81186E-06  
   1.81368750000E+06; -6.14375E-07  ; 4.22635E-06  
   1.81537500000E+06; -1.29099E-06  ; 3.87662E-06  
   1.81706250000E+06; -2.37935E-06  ; 3.60693E-06  
   1.81875000000E+06; -1.9568E-06   ; 2.99368E-06  
   1.82043750000E+06; -2.65959E-06  ; 3.33201E-06  
   1.82212500000E+06;  1.15175E-06  ; 4.97691E-06  
   1.82381250000E+06; -2.12926E-06  ; 4.92539E-06  
   1.82550000000E+06;  1.15327E-06  ; 3.48072E-06  
   1.82718750000E+06; -2.21555E-06  ; 4.23429E-06  
   1.82887500000E+06;  1.71545E-06  ; 3.21968E-06  
   1.83056250000E+06; -1.46803E-06  ; 5.2152E-06   
   1.83225000000E+06; -6.62137E-07  ; 3.72658E-06  
   1.83393750000E+06; -1.23525E-06  ; 3.058E-06    
   1.83562500000E+06; -2.79509E-07  ; 4.26088E-06  
   1.83731250000E+06; -1.27048E-06  ; 5.11336E-06  
   1.83900000000E+06; -2.05643E-06  ; 3.5278E-06   
   1.84068750000E+06; -1.10394E-06  ; 4.28566E-06  
   1.84237500000E+06; -1.34629E-06  ; 3.79664E-06  
   1.84406250000E+06; -8.98482E-07  ; 4.1599E-06   
   1.84575000000E+06;  6.01175E-07  ; 4.74448E-06  
   1.84743750000E+06; -1.2785E-06   ; 4.24838E-06  
   1.84912500000E+06; -9.55229E-07  ; 3.14527E-06  
   1.85081250000E+06; -1.37309E-06  ; 2.38444E-06  
   1.85250000000E+06; -1.81885E-06  ; 4.2705E-06   
   1.85418750000E+06; -1.25228E-06  ; 3.34887E-06  
   1.85587500000E+06; -3.87863E-07  ; 5.12536E-06  
   1.85756250000E+06; -7.38945E-07  ; 2.8725E-06   
   1.85925000000E+06; -1.1913E-06   ; 3.74256E-06  
   1.86093750000E+06; -5.02099E-07  ; 4.02184E-06  
   1.86262500000E+06; -6.2082E-07   ; 3.83779E-06  
   1.86431250000E+06; -1.76362E-06  ; 5.31783E-06  
   1.86600000000E+06; -3.19371E-07  ; 5.56086E-06  
   1.86768750000E+06; -8.87757E-07  ; 5.22493E-06  
   1.86937500000E+06; -5.2065E-07   ; 5.70238E-06  
   1.87106250000E+06; -8.86913E-08  ; 2.9519E-06   
   1.87275000000E+06; -8.70432E-07  ; 4.97343E-06  
   1.87443750000E+06; -1.6662E-07   ; 6.02707E-06  
   1.87612500000E+06; -3.67008E-08  ; 3.50978E-06  
   1.87781250000E+06; -1.34484E-06  ; 5.49392E-06  
   1.87950000000E+06; -6.00675E-07  ; 3.55593E-06  
   1.88118750000E+06; -1.03017E-06  ; 5.29881E-06  
   1.88287500000E+06; -9.04443E-07  ; 5.05642E-06  
   1.88456250000E+06; -2.65154E-06  ; 4.39401E-06  
   1.88625000000E+06; -1.90992E-06  ; 5.72899E-06  
   1.88793750000E+06; -1.8194E-06   ; 3.60798E-06  
   1.88962500000E+06; -4.82584E-07  ; 5.17289E-06  
   1.89131250000E+06; -1.43528E-06  ; 3.24126E-06  
   1.89300000000E+06; -2.27088E-06  ; 3.91035E-06  
   1.89468750000E+06; -2.85339E-07  ; 3.00376E-06  
   1.89637500000E+06; -2.12187E-06  ; 4.38514E-06  
   1.89806250000E+06; -1.5869E-06   ; 5.42948E-06  
   1.89975000000E+06; -4.90186E-07  ; 4.32219E-06  
   1.90143750000E+06; -1.53737E-06  ; 5.06091E-06  
   1.90312500000E+06; -1.56664E-07  ; 3.74032E-06  
   1.90481250000E+06;  3.25236E-07  ; 2.87198E-06  
   1.90650000000E+06; -8.80141E-07  ; 3.4147E-06   
   1.90818750000E+06; -2.36373E-07  ; 5.08896E-06  
   1.90987500000E+06; -1.36187E-06  ; 5.64173E-06  
   1.91156250000E+06; -1.14223E-07  ; 4.1577E-06   
   1.91325000000E+06; -6.31435E-07  ; 4.20968E-06  
   1.91493750000E+06; -1.58046E-06  ; 5.85307E-06  
   1.91662500000E+06; -2.43137E-06  ; 4.3136E-06   
   1.91831250000E+06; -1.28729E-06  ; 3.44903E-06  
   1.92000000000E+06; -5.71731E-07  ; 4.4023E-06   
   1.92168750000E+06; -1.26456E-06  ; 5.02887E-06  
   1.92337500000E+06; -1.06898E-06  ; 4.36498E-06  
   1.92506250000E+06; -1.27428E-06  ; 5.09746E-06  
   1.92675000000E+06; -8.07993E-07  ; 6.84332E-06  
   1.92843750000E+06;  7.98026E-08  ; 3.65461E-06  
   1.93012500000E+06;  6.94162E-07  ; 3.29948E-06  
   1.93181250000E+06; -9.77687E-07  ; 3.80419E-06  
   1.93350000000E+06; -1.50755E-06  ; 3.66303E-06  
   1.93518750000E+06; -1.64967E-07  ; 3.54592E-06  
   1.93687500000E+06; -9.93099E-07  ; 4.69117E-06  
   1.93856250000E+06; -8.67675E-07  ; 5.50365E-06  
   1.94025000000E+06; -1.13748E-06  ; 3.46283E-06  
   1.94193750000E+06;  2.2027E-07   ; 3.23585E-06  
   1.94362500000E+06; -9.91421E-07  ; 4.01623E-06  
   1.94531250000E+06; -1.44292E-06  ; 4.00783E-06  
   1.94700000000E+06; -2.63239E-06  ; 4.42518E-06  
   1.94868750000E+06; -1.74385E-06  ; 2.97801E-06  
   1.95037500000E+06; -6.92109E-07  ; 4.33814E-06  
   1.95206250000E+06; -1.50268E-06  ; 4.04475E-06  
   1.95375000000E+06; -5.20109E-07  ; 3.9263E-06   
   1.95543750000E+06;  2.22205E-07  ; 5.64495E-06  
   1.95712500000E+06;  2.34537E-07  ; 4.4497E-06   
   1.95881250000E+06; -7.6338E-07   ; 6.16231E-06  
   1.96050000000E+06; -2.14936E-07  ; 5.00844E-06  
   1.96218750000E+06; -2.08257E-07  ; 3.78146E-06  
   1.96387500000E+06; -2.7563E-06   ; 5.73631E-06  
   1.96556250000E+06; -4.08585E-07  ; 6.49595E-06  
   1.96725000000E+06; -1.62841E-06  ; 4.12241E-06  
   1.96893750000E+06;  3.60861E-07  ; 4.31185E-06  
   1.97062500000E+06;  3.56535E-07  ; 4.43342E-06  
   1.97231250000E+06; -9.92469E-07  ; 4.779E-06    
   1.97400000000E+06; -1.14115E-06  ; 4.97067E-06  
   1.97568750000E+06; -1.15552E-06  ; 3.95217E-06  
   1.97737500000E+06; -1.62721E-06  ; 5.31512E-06  
   1.97906250000E+06; -4.35213E-07  ; 3.05398E-06  
   1.98075000000E+06; -9.02525E-07  ; 6.99408E-06  
   1.98243750000E+06; -4.04796E-07  ; 5.82932E-06  
   1.98412500000E+06; -1.10084E-06  ; 4.74908E-06  
   1.98581250000E+06; -1.92612E-06  ; 3.56251E-06  
   1.98750000000E+06; -1.76917E-06  ; 5.96042E-06  
   1.98918750000E+06; -1.40648E-06  ; 4.20182E-06  
   1.99087500000E+06; -1.30518E-08  ; 5.44911E-06  
   1.99256250000E+06;  1.1339E-07   ; 3.91731E-06  
   1.99425000000E+06;  1.07202E-06  ; 5.0109E-06   
   1.99593750000E+06; -3.89224E-07  ; 4.10172E-06  
   1.99762500000E+06; -3.18558E-07  ; 4.35237E-06  
   1.99931250000E+06; -1.66447E-06  ; 6.01071E-06  
   2.00100000000E+06; -1.0714E-06   ; 3.61506E-06  
   2.00268750000E+06; -3.69828E-07  ; 4.07555E-06  
   2.00437500000E+06; -1.58734E-06  ; 4.02122E-06  
   2.00606250000E+06; -5.04453E-07  ; 4.98324E-06  
   2.00775000000E+06; -1.52132E-06  ; 4.99446E-06  
   2.00943750000E+06; -1.77841E-06  ; 3.65365E-06  
   2.01112500000E+06; -5.49528E-07  ; 5.0072E-06   
   2.01281250000E+06; -1.6461E-06   ; 5.03692E-06  
   2.01450000000E+06; -1.81946E-06  ; 3.50153E-06  
   2.01618750000E+06; -2.51822E-07  ; 3.74012E-06  
   2.01787500000E+06; -1.88124E-06  ; 5.66303E-06  
   2.01956250000E+06;  2.32307E-08  ; 4.47688E-06  
   2.02125000000E+06; -8.96352E-07  ; 5.02805E-06  
   2.02293750000E+06; -2.14709E-06  ; 4.8698E-06   
   2.02462500000E+06; -2.30431E-06  ; 6.30928E-06  
   2.02631250000E+06; -1.3235E-06   ; 4.19594E-06  
   2.02800000000E+06; -9.09791E-07  ; 5.46073E-06  
   2.02968750000E+06; -1.43596E-06  ; 4.84101E-06  
   2.03137500000E+06; -6.06278E-07  ; 4.49819E-06  
   2.03306250000E+06; -3.06307E-07  ; 5.48997E-06  
   2.03475000000E+06; -7.8029E-07   ; 4.86688E-06  
   2.03643750000E+06; -1.13637E-06  ; 4.54253E-06  
   2.03812500000E+06; -1.11153E-06  ; 5.57974E-06  
   2.03981250000E+06; -2.05671E-07  ; 5.56396E-06  
   2.04150000000E+06; -1.54971E-06  ; 6.69725E-06  
   2.04318750000E+06; -1.03131E-06  ; 4.09113E-06  
   2.04487500000E+06; -7.63061E-07  ; 4.62966E-06  
   2.04656250000E+06;  1.23755E-07  ; 4.71429E-06  
   2.04825000000E+06; -1.57723E-06  ; 4.04571E-06  
   2.04993750000E+06; -1.25137E-06  ; 5.0269E-06   
   2.05162500000E+06; -2.46429E-06  ; 3.65586E-06  
   2.05331250000E+06; -1.85253E-06  ; 3.27609E-06  
   2.05500000000E+06; -1.61298E-06  ; 3.25617E-06  
   2.05668750000E+06; -2.16701E-06  ; 3.1417E-06   
   2.05837500000E+06; -1.02467E-06  ; 4.55788E-06  
   2.06006250000E+06; -1.1227E-06   ; 5.13421E-06  
   2.06175000000E+06; -6.50165E-07  ; 2.65472E-06  
   2.06343750000E+06; -1.33551E-06  ; 4.72857E-06  
   2.06512500000E+06; -1.31123E-06  ; 5.82543E-06  
   2.06681250000E+06; -3.1894E-07   ; 5.79273E-06  
   2.06850000000E+06; -2.58555E-08  ; 4.8113E-06   
   2.07018750000E+06; -6.22873E-07  ; 6.06494E-06  
   2.07187500000E+06;  1.35159E-06  ; 5.4181E-06   
   2.07356250000E+06; -2.75272E-07  ; 2.57717E-06  
   2.07525000000E+06; -3.32673E-07  ; 4.89769E-06  
   2.07693750000E+06; -2.01107E-06  ; 4.77377E-06  
   2.07862500000E+06;  7.96608E-08  ; 5.54461E-06  
   2.08031250000E+06; -5.5676E-07   ; 6.52895E-06  
   2.08200000000E+06; -1.64622E-06  ; 5.74961E-06  
   2.08368750000E+06; -1.16932E-06  ; 2.54774E-06  
   2.08537500000E+06; -2.14113E-07  ; 5.66303E-06  
   2.08706250000E+06; -1.82482E-06  ; 3.20838E-06  
   2.08875000000E+06; -9.52446E-07  ; 5.17565E-06  
   2.09043750000E+06; -1.6896E-06   ; 4.78217E-06  
   2.09212500000E+06; -1.35174E-06  ; 5.26402E-06  
   2.09381250000E+06; -6.93561E-07  ; 4.82808E-06  
   2.09550000000E+06; -1.59978E-06  ; 4.38239E-06  
   2.09718750000E+06; -1.69783E-06  ; 4.96358E-06  
   2.09887500000E+06; -2.68601E-06  ; 3.98916E-06  
   2.10056250000E+06; -2.55627E-06  ; 4.3657E-06   
   2.10225000000E+06; -1.52147E-06  ; 5.49592E-06  
   2.10393750000E+06; -3.29333E-06  ; 5.70038E-06  
   2.10562500000E+06; -1.52423E-06  ; 2.80368E-06  
   2.10731250000E+06; -6.41951E-07  ; 5.99525E-06  
   2.10900000000E+06; -1.50677E-06  ; 5.62861E-06  
   2.11068750000E+06; -2.23657E-06  ; 5.30292E-06  
   2.11237500000E+06; -5.56889E-07  ; 4.89609E-06  
   2.11406250000E+06; -1.43484E-06  ; 4.21691E-06  
   2.11575000000E+06; -1.49875E-06  ; 3.50716E-06  
   2.11743750000E+06; -7.72232E-07  ; 4.87463E-06  
   2.11912500000E+06; -5.77327E-08  ; 4.10762E-06  
   2.12081250000E+06; -5.5708E-07   ; 4.56926E-06  
   2.12250000000E+06; -5.19506E-07  ; 6.55412E-06  
   2.12418750000E+06;  5.55552E-07  ; 4.91721E-06  
   2.12587500000E+06; -1.85546E-06  ; 4.36423E-06  
   2.12756250000E+06; -3.58802E-07  ; 3.85497E-06  
   2.12925000000E+06; -1.28389E-06  ; 6.38558E-06  
   2.13093750000E+06;  4.74354E-07  ; 5.43227E-06  
   2.13262500000E+06; -9.27907E-07  ; 5.92772E-06  
   2.13431250000E+06;  2.11627E-07  ; 4.11704E-06  
   2.13600000000E+06; -3.1381E-06   ; 4.66539E-06  
   2.13768750000E+06; -2.94443E-07  ; 6.53936E-06  
   2.13937500000E+06;  1.00171E-07  ; 4.85364E-06  
   2.14106250000E+06; -2.46422E-06  ; 4.63117E-06  
   2.14275000000E+06; -2.20756E-06  ; 5.29122E-06  
   2.14443750000E+06; -5.05237E-07  ; 4.80967E-06  
   2.14612500000E+06; -2.61279E-07  ; 5.1376E-06   
   2.14781250000E+06;  4.8963E-07   ; 5.61017E-06  
   2.14950000000E+06;  4.82046E-07  ; 4.67946E-06  
   2.15118750000E+06; -1.74345E-06  ; 4.91265E-06  
   2.15287500000E+06; -4.27739E-07  ; 5.50551E-06  
   2.15456250000E+06; -2E-06        ; 4.03808E-06  
   2.15625000000E+06; -1.94206E-06  ; 4.39899E-06  
   2.15793750000E+06; -2.21533E-06  ; 6.08212E-06  
   2.15962500000E+06; -2.51972E-06  ; 5.61394E-06  
   2.16131250000E+06; -1.72273E-06  ; 6.1053E-06   
   2.16300000000E+06; -6.17089E-07  ; 6.15253E-06  
   2.16468750000E+06; -1.59529E-06  ; 4.45839E-06  
   2.16637500000E+06;  5.46204E-07  ; 4.74938E-06  
   2.16806250000E+06; -1.98314E-06  ; 4.11151E-06  
   2.16975000000E+06; -9.17393E-07  ; 3.78844E-06  
   2.17143750000E+06; -1.53154E-06  ; 4.18746E-06  
   2.17312500000E+06; -2.00737E-06  ; 4.46218E-06  
   2.17481250000E+06; -1.42408E-06  ; 5.13859E-06  
   2.17650000000E+06; -4.0023E-07   ; 5.27752E-06  
   2.17818750000E+06; -1.70839E-06  ; 5.325E-06    
   2.17987500000E+06; -2.96481E-07  ; 6.66817E-06  
   2.18156250000E+06;  4.09169E-07  ; 5.24001E-06  
   2.18325000000E+06; -1.23352E-06  ; 5.5466E-06   
   2.18493750000E+06; -1.87747E-06  ; 6.39952E-06  
   2.18662500000E+06;  1.11812E-07  ; 4.9776E-06   
   2.18831250000E+06; -1.63478E-06  ; 4.03638E-06  
   2.19000000000E+06; -1.24556E-06  ; 1.2642E-06   
   2.19168750000E+06; -1.42784E-06  ; 5.33586E-06  
   2.19337500000E+06; -2.7333E-06   ; 5.70661E-06  
   2.19506250000E+06; -1.01515E-06  ; 5.6245E-06   
   2.19675000000E+06; -1.23808E-06  ; 4.56749E-06  
   2.19843750000E+06; -1.85453E-06  ; 5.96952E-06  
   2.20012500000E+06; -2.75788E-06  ; 2.86536E-06  
   2.20181250000E+06; -2.28116E-06  ; 6.40565E-06  
   2.20350000000E+06; -2.27624E-06  ; 4.14192E-06  
   2.20518750000E+06; -1.32634E-06  ; 4.40356E-06  
   2.20687500000E+06; -1.0283E-06   ; 5.18588E-06  
   2.20856250000E+06; -3.24373E-06  ; 6.27161E-06  
   2.21025000000E+06;  8.81984E-07  ; 4.55755E-06  
   2.21193750000E+06;  4.23516E-07  ; 5.0667E-06   
   2.21362500000E+06; -3.00908E-07  ; 5.71503E-06  
   2.21531250000E+06;  9.22287E-07  ; 4.22046E-06  
   2.21700000000E+06;  3.07508E-07  ; 3.98104E-06  
   2.21868750000E+06; -1.70864E-06  ; 2.89154E-06  
   2.22037500000E+06; -1.43648E-06  ; 6.68324E-06  
   2.22206250000E+06; -1.35209E-06  ; 3.72727E-06  
   2.22375000000E+06; -2.30505E-06  ; 4.37602E-06  
   2.22543750000E+06; -1.80124E-06  ; 7.65918E-06  
   2.22712500000E+06; -1.21102E-06  ; 1.09104E-05  
   2.22881250000E+06;  1.39075E-06  ; 6.94992E-06  
   2.23050000000E+06;  1.16538E-06  ; 6.132E-06    
   2.23218750000E+06; -9.0023E-07   ; 4.00079E-06  
   2.23387500000E+06; -8.22992E-07  ; 5.11663E-06  
   2.23556250000E+06; -1.67986E-06  ; 5.90828E-06  
   2.23725000000E+06;  4.09503E-07  ; 4.97502E-06  
   2.23893750000E+06; -1.45728E-06  ; 4.61545E-06  
   2.24062500000E+06; -2.45602E-06  ; 4.68761E-06  
   2.24231250000E+06; -2.14441E-06  ; 5.90852E-06  
   2.24400000000E+06; -6.2485E-07   ; 7.58225E-06  
   2.24568750000E+06;  2.98333E-07  ; 6.77763E-06  
   2.24737500000E+06; -9.54985E-07  ; 4.91677E-06  
   2.24906250000E+06;  9.88191E-08  ; 3.9384E-06   
   2.25075000000E+06; -2.40984E-07  ; 5.43084E-06  
   2.25243750000E+06;  3.79101E-07  ; 5.6182E-06   
   2.25412500000E+06; -1.75141E-06  ; 4.56292E-06  
   2.25581250000E+06; -3.20994E-06  ; 4.88991E-06  
   2.25750000000E+06; -7.73175E-08  ; 4.02156E-06  
   2.25918750000E+06; -1.20396E-06  ; 6.76262E-06  
   2.26087500000E+06;  5.89275E-07  ; 5.226E-06    
   2.26256250000E+06;  1.75503E-06  ; 3.33461E-06  
   2.26425000000E+06; -7.90538E-07  ; 3.5811E-06   
   2.26593750000E+06; -1.84997E-06  ; 4.17504E-06  
   2.26762500000E+06; -2.32769E-06  ; 6.42594E-06  
   2.26931250000E+06;  1.12268E-06  ; 6.37668E-06  
   2.27100000000E+06; -2.36593E-06  ; 6.47558E-06  
   2.27268750000E+06;  6.28571E-07  ; 6.92353E-06  
   2.27437500000E+06;  7.80831E-07  ; 6.50452E-06  
   2.27606250000E+06;  2.85369E-07  ; 7.51955E-06  
   2.27775000000E+06;  3.04727E-06  ; 5.91764E-06  
   2.27943750000E+06;  3.59369E-06  ; 8.69339E-07  
   2.28112500000E+06; -2.99907E-06  ; 2.51413E-06  
   2.28281250000E+06; -2.38334E-06  ; 9.4582E-07   
   2.28450000000E+06; -6.28337E-06  ; 7.80015E-06  
   2.28618750000E+06; -4.1317E-06   ; 9.00939E-06  
   2.28787500000E+06; -1.34441E-06  ; 9.66418E-06  
   2.28956250000E+06;  3.12791E-06  ; 4.51388E-06  
   2.29125000000E+06;  1.44062E-06  ; 6.69359E-06  
   2.29293750000E+06;  2.94255E-06  ; 2.51435E-06  
   2.29462500000E+06; -4.69259E-07  ;-1.53481E-06  
   2.29631250000E+06; -5.36641E-06  ; 5.07694E-06  
   2.29800000000E+06; -2.90598E-06  ; 5.90928E-06  
   2.29968750000E+06; -1.07009E-06  ; 7.71888E-06  
   2.30137500000E+06;  1.84057E-07  ; 4.03114E-06  
   2.30306250000E+06; -2.35905E-06  ; 6.72514E-06  
   2.30475000000E+06; -1.22531E-06  ; 5.27157E-06  
   2.30643750000E+06; -4.9009E-07   ; 7.77188E-06  
   2.30812500000E+06; -1.45536E-06  ; 5.9443E-06   
   2.30981250000E+06; -4.11037E-07  ; 6.73573E-06  
   2.31150000000E+06; -1.65139E-07  ; 6.65234E-06  
   2.31318750000E+06;  1.71489E-06  ; 6.51069E-06  
   2.31487500000E+06;  8.16605E-07  ; 4.8795E-06   
   2.31656250000E+06;  1.19308E-06  ; 4.35364E-06  
   2.31825000000E+06; -6.43319E-07  ; 5.53849E-06  
   2.31993750000E+06; -1.79042E-07  ; 5.05036E-06  
   2.32162500000E+06; -3.15253E-07  ; 5.82428E-06  
   2.32331250000E+06; -1.64847E-06  ; 4.90544E-06  
   2.32500000000E+06;  2.41886E-07  ; 4.84054E-06  
   2.32668750000E+06; -1.68915E-06  ; 4.81904E-06  
   2.32837500000E+06; -1.93734E-06  ; 5.0797E-06   
   2.33006250000E+06; -6.34287E-07  ; 5.56984E-06  
   2.33175000000E+06; -2.41113E-06  ; 3.78639E-06  
   2.33343750000E+06; -2.55437E-06  ; 8.74226E-06  
   2.33512500000E+06; -5.09975E-07  ; 7.20561E-06  
   2.33681250000E+06; -1.96177E-06  ; 5.23756E-06  
   2.33850000000E+06; -2.05862E-06  ; 4.56592E-06  
   2.34018750000E+06; -9.62601E-07  ; 6.06035E-06  
   2.34187500000E+06; -2.24576E-06  ; 6.97117E-06  
   2.34356250000E+06; -1.63268E-06  ; 5.17161E-06  
   2.34525000000E+06; -1.77223E-06  ; 6.38123E-06  
   2.34693750000E+06; -8.8317E-07   ; 3.83583E-06  
   2.34862500000E+06; -1.02081E-06  ; 4.70492E-06  
   2.35031250000E+06;  5.54813E-08  ; 5.43298E-06  
   2.35200000000E+06; -1.27052E-06  ; 4.79976E-06  
   2.35368750000E+06; -9.65059E-07  ; 4.50382E-06  
   2.35537500000E+06; -2.62997E-07  ; 5.75991E-06  
   2.35706250000E+06;  2.51384E-07  ; 5.5866E-06   
   2.35875000000E+06;  1.28098E-07  ; 5.13609E-06  
   2.36043750000E+06;  3.53999E-07  ; 4.5351E-06   
   2.36212500000E+06; -1.83748E-07  ; 5.02574E-06  
   2.36381250000E+06; -4.96682E-07  ; 5.49455E-06  
   2.36550000000E+06; -3.38572E-06  ; 6.77633E-06  
   2.36718750000E+06; -5.62014E-07  ; 7.52871E-06  
   2.36887500000E+06; -4.12122E-07  ; 6.32135E-06  
   2.37056250000E+06;  9.83888E-07  ; 5.62192E-06  
   2.37225000000E+06; -3.84369E-06  ; 4.33575E-06  
   2.37393750000E+06; -1.27508E-06  ; 6.56148E-06  
   2.37562500000E+06;  4.96447E-08  ; 6.16938E-06  
   2.37731250000E+06; -2.22885E-06  ; 5.84079E-06  
   2.37900000000E+06; -5.39013E-07  ; 6.46306E-06  
   2.38068750000E+06; -1.14935E-06  ; 5.68856E-06  
   2.38237500000E+06; -1.62063E-07  ; 5.76068E-06  
   2.38406250000E+06; -1.32099E-06  ; 4.29841E-06  
   2.38575000000E+06; -5.96429E-08  ; 4.21095E-06  
   2.38743750000E+06; -1.02476E-06  ; 5.01371E-06  
   2.38912500000E+06; -6.36749E-08  ; 4.78584E-06  
   2.39081250000E+06; -5.20469E-07  ; 5.71929E-06  
   2.39250000000E+06; -2.08462E-07  ; 6.09619E-06  
   2.39418750000E+06; -2.34804E-06  ; 6.32368E-06  
   2.39587500000E+06; -1.04318E-06  ; 5.96742E-06  
   2.39756250000E+06; -1.45371E-06  ; 5.67113E-06  
   2.39925000000E+06; -2.07811E-06  ; 4.82801E-06  
   2.40093750000E+06; -9.51395E-07  ; 3.97187E-06  
   2.40262500000E+06; -1.29269E-06  ; 6.43307E-06  
   2.40431250000E+06; -5.04868E-07  ; 4.36538E-06  
   2.40600000000E+06; -5.47292E-07  ; 4.1128E-06   
   2.40768750000E+06;  7.19748E-08  ; 5.7056E-06   
   2.40937500000E+06; -6.83882E-07  ; 5.07585E-06  
   2.41106250000E+06; -1.45516E-06  ; 5.90754E-06  
   2.41275000000E+06; -1.22085E-06  ; 5.96495E-06  
   2.41443750000E+06; -4.28489E-07  ; 4.39486E-06  
   2.41612500000E+06; -3.23163E-07  ; 5.00718E-06  
   2.41781250000E+06; -3.56265E-07  ; 6.42217E-06  
   2.41950000000E+06; -3.40812E-06  ; 5.78635E-06  
   2.42118750000E+06; -6.94301E-07  ; 6.34306E-06  
   2.42287500000E+06; -1.70945E-06  ; 5.88949E-06  
   2.42456250000E+06; -2.66238E-07  ; 5.16804E-06  
   2.42625000000E+06; -9.90482E-07  ; 4.57795E-06  
   2.42793750000E+06;  5.73706E-07  ; 5.05457E-06  
   2.42962500000E+06; -1.38923E-06  ; 5.27223E-06  
   2.43131250000E+06; -1.87982E-06  ; 6.25367E-06  
   2.43300000000E+06; -1.41049E-06  ; 5.62624E-06  
   2.43468750000E+06;  2.19635E-07  ; 5.48826E-06  
   2.43637500000E+06; -1.24162E-06  ; 5.21642E-06  
   2.43806250000E+06; -4.09257E-07  ; 5.89455E-06  
   2.43975000000E+06; -2.47036E-06  ; 5.12478E-06  
   2.44143750000E+06; -4.76674E-07  ; 4.687E-06    
   2.44312500000E+06; -1.60055E-06  ; 5.03291E-06  
   2.44481250000E+06; -1.16941E-06  ; 6.96776E-06  
   2.44650000000E+06; -1.90365E-07  ; 5.43639E-06  
   2.44818750000E+06; -4.36947E-07  ; 5.18744E-06  
   2.44987500000E+06; -1.14045E-06  ; 6.23715E-06  
   2.45156250000E+06; -1.45831E-06  ; 5.02201E-06  
   2.45325000000E+06; -1.96756E-06  ; 6.54185E-06  
   2.45493750000E+06; -1.76582E-06  ; 4.81524E-06  
   2.45662500000E+06; -2.27675E-06  ; 5.48264E-06  
   2.45831250000E+06;  6.35155E-08  ; 4.61775E-06  
   2.46000000000E+06; -9.07684E-07  ; 5.27404E-06  
   2.46168750000E+06; -9.20175E-07  ; 5.92791E-06  
   2.46337500000E+06; -2.57191E-07  ; 6.21811E-06  
   2.46506250000E+06; -2.01789E-06  ; 6.01289E-06  
   2.46675000000E+06; -6.1216E-08   ; 4.35014E-06  
   2.46843750000E+06; -1.79779E-06  ; 6.8885E-06   
   2.47012500000E+06; -1.95609E-06  ; 5.44293E-06  
   2.47181250000E+06; -3.20327E-07  ; 7.14669E-06  
   2.47350000000E+06; -7.20247E-07  ; 8.04364E-06  
   2.47518750000E+06; -1.70552E-06  ; 5.40187E-06  
   2.47687500000E+06; -1.23496E-06  ; 5.49498E-06  
   2.47856250000E+06; -5.05838E-07  ; 6.29313E-06  
   2.48025000000E+06; -1.48812E-06  ; 5.21177E-06  
   2.48193750000E+06; -8.42853E-07  ; 5.7487E-06   
   2.48362500000E+06; -1.31487E-06  ; 4.62675E-06  
   2.48531250000E+06; -2.00254E-06  ; 6.38555E-06  
   2.48700000000E+06; -1.4052E-07   ; 4.97602E-06  
   2.48868750000E+06; -1.86365E-06  ; 5.34859E-06  
   2.49037500000E+06; -1.96344E-06  ; 8.27593E-06  
   2.49206250000E+06; -1.42412E-06  ; 6.27799E-06  
   2.49375000000E+06;  5.58745E-07  ; 4.70829E-06  
   2.49543750000E+06; -5.36908E-07  ; 6.70877E-06  
   2.49712500000E+06; -3.15715E-07  ; 6.94259E-06  
   2.49881250000E+06; -9.32619E-07  ; 7.03128E-06  
   2.50050000000E+06; -8.53766E-07  ; 5.93063E-06  
   2.50218750000E+06; -7.19725E-08  ; 5.68588E-06  
   2.50387500000E+06; -1.03469E-06  ; 5.89283E-06  
   2.50556250000E+06; -9.48234E-07  ; 6.60813E-06  
   2.50725000000E+06; -6.21328E-07  ; 5.21109E-06  
   2.50893750000E+06; -1.15212E-06  ; 4.58198E-06  
   2.51062500000E+06;  4.39137E-07  ; 5.64757E-06  
   2.51231250000E+06; -2.7928E-07   ; 4.89544E-06  
   2.51400000000E+06; -1.98509E-06  ; 5.76852E-06  
   2.51568750000E+06;  3.76482E-07  ; 5.43908E-06  
   2.51737500000E+06; -8.95181E-07  ; 6.06481E-06  
   2.51906250000E+06; -1.2961E-06   ; 6.39049E-06  
   2.52075000000E+06; -5.61442E-07  ; 5.5977E-06   
   2.52243750000E+06; -7.30284E-07  ; 5.62165E-06  
   2.52412500000E+06; -3.78638E-07  ; 6.24226E-06  
   2.52581250000E+06; -2.33914E-06  ; 5.54888E-06  
   2.52750000000E+06; -2.26447E-06  ; 6.06336E-06  
   2.52918750000E+06;  7.45536E-07  ; 5.33247E-06  
   2.53087500000E+06; -1.48706E-06  ; 7.41308E-06  
   2.53256250000E+06; -1.03322E-06  ; 5.6786E-06   
   2.53425000000E+06; -3.43404E-07  ; 5.58734E-06  
   2.53593750000E+06; -1.3605E-06   ; 6.93358E-06  
   2.53762500000E+06; -1.49594E-06  ; 5.54773E-06  
   2.53931250000E+06; -1.35146E-06  ; 5.71752E-06  
   2.54100000000E+06; -5.62735E-08  ; 5.5093E-06   
   2.54268750000E+06; -3.24104E-06  ; 6.90191E-06  
   2.54437500000E+06; -1.73926E-06  ; 5.35977E-06  
   2.54606250000E+06;  1.19757E-06  ; 6.47221E-06  
   2.54775000000E+06; -3.59054E-07  ; 4.88824E-06  
   2.54943750000E+06; -2.61232E-06  ; 6.11952E-06  
   2.55112500000E+06; -6.27145E-07  ; 6.06089E-06  
   2.55281250000E+06; -7.559E-07    ; 6.15883E-06  
   2.55450000000E+06;  4.45997E-08  ; 6.23107E-06  
   2.55618750000E+06; -1.85733E-07  ; 5.84565E-06  
   2.55787500000E+06; -1.19484E-06  ; 6.19082E-06  
   2.55956250000E+06; -2.4406E-06   ; 5.34454E-06  
   2.56125000000E+06; -1.15716E-06  ; 6.90229E-06  
   2.56293750000E+06; -1.09702E-06  ; 5.94549E-06  
   2.56462500000E+06; -1.74893E-06  ; 5.77715E-06  
   2.56631250000E+06;  4.41505E-07  ; 4.66079E-06  
   2.56800000000E+06; -1.25917E-06  ; 4.66388E-06  
   2.56968750000E+06;  1.60028E-07  ; 5.12291E-06  
   2.57137500000E+06; -1.32796E-06  ; 5.11727E-06  
   2.57306250000E+06; -2.23273E-06  ; 6.02985E-06  
   2.57475000000E+06;  4.09043E-07  ; 5.8053E-06   
   2.57643750000E+06; -1.89918E-06  ; 5.85457E-06  
   2.57812500000E+06;  3.14904E-07  ; 7.94922E-06  
   2.57981250000E+06; -4.46029E-07  ; 4.89722E-06  
   2.58150000000E+06; -1.94453E-06  ; 4.53993E-06  
   2.58318750000E+06; -1.27949E-06  ; 5.72655E-06  
   2.58487500000E+06; -2.07542E-07  ; 7.75566E-06  
   2.58656250000E+06; -8.92164E-07  ; 5.88123E-06  
   2.58825000000E+06;  6.57657E-07  ; 4.78092E-06  
   2.58993750000E+06; -4.77049E-07  ; 6.17023E-06  
   2.59162500000E+06;  2.26276E-07  ; 4.53924E-06  
   2.59331250000E+06; -5.87796E-07  ; 6.16788E-06  
   2.59500000000E+06; -3.47652E-07  ; 5.74264E-06  
   2.59668750000E+06; -2.11833E-06  ; 5.63754E-06  
   2.59837500000E+06; -9.23111E-07  ; 6.72102E-06  
   2.60006250000E+06; -9.58688E-07  ; 5.60827E-06  
   2.60175000000E+06; -5.73803E-07  ; 4.06243E-06  
   2.60343750000E+06; -1.62345E-06  ; 5.09509E-06  
   2.60512500000E+06; -1.51336E-07  ; 6.01466E-06  
   2.60681250000E+06; -2.66696E-06  ; 6.07122E-06  
   2.60850000000E+06; -1.29058E-06  ; 7.60208E-06  
   2.61018750000E+06; -1.17132E-06  ; 6.09658E-06  
   2.61187500000E+06; -3.39571E-07  ; 7.55605E-06  
   2.61356250000E+06; -1.95319E-06  ; 3.66615E-06  
   2.61525000000E+06; -9.32251E-07  ; 7.56806E-06  
   2.61693750000E+06; -2.66562E-06  ; 6.18858E-06  
   2.61862500000E+06;  1.71727E-07  ; 5.91011E-06  
   2.62031250000E+06;  5.11451E-08  ; 4.83074E-06  
   2.62200000000E+06; -5.41533E-07  ; 7.71346E-06  
   2.62368750000E+06;  6.81003E-07  ; 5.11232E-06  
   2.62537500000E+06; -8.59842E-07  ; 6.27768E-06  
   2.62706250000E+06; -6.32201E-07  ; 5.33164E-06  
   2.62875000000E+06; -1.46417E-06  ; 6.3922E-06   
   2.63043750000E+06; -1.82719E-06  ; 4.89071E-06  
   2.63212500000E+06; -8.33206E-07  ; 6.49918E-06  
   2.63381250000E+06; -1.2342E-06   ; 6.50989E-06  
   2.63550000000E+06; -1.13418E-06  ; 5.70748E-06  
   2.63718750000E+06; -2.87379E-07  ; 6.49868E-06  
   2.63887500000E+06; -9.13589E-07  ; 7.00755E-06  
   2.64056250000E+06; -2.75768E-07  ; 5.00197E-06  
   2.64225000000E+06; -1.7298E-06   ; 4.81485E-06  
   2.64393750000E+06; -1.60688E-06  ; 6.91699E-06  
   2.64562500000E+06; -7.29279E-07  ; 6.76836E-06  
   2.64731250000E+06; -9.60787E-07  ; 7.7677E-06   
   2.64900000000E+06; -1.04816E-06  ; 4.71781E-06  
   2.65068750000E+06; -6.92135E-07  ; 6.83108E-06  
   2.65237500000E+06;  6.96242E-07  ; 7.49795E-06  
   2.65406250000E+06; -7.05266E-07  ; 4.87368E-06  
   2.65575000000E+06; -6.86236E-07  ; 5.69896E-06  
   2.65743750000E+06; -1.07239E-06  ; 5.59668E-06  
   2.65912500000E+06; -3.15713E-07  ; 5.69905E-06  
   2.66081250000E+06; -1.05633E-06  ; 6.54836E-06  
   2.66250000000E+06; -7.65206E-07  ; 4.41917E-06  
   2.66418750000E+06;  5.26974E-07  ; 5.43536E-06  
   2.66587500000E+06; -2.20503E-06  ; 7.96027E-06  
   2.66756250000E+06; -2.22698E-06  ; 6.84122E-06  
   2.66925000000E+06; -2.03922E-06  ; 7.55106E-06  
   2.67093750000E+06; -1.06387E-06  ; 6.58257E-06  
   2.67262500000E+06; -2.1814E-06   ; 7.36692E-06  
   2.67431250000E+06; -1.06355E-06  ; 6.41503E-06  
   2.67600000000E+06; -1.24219E-06  ; 6.00615E-06  
   2.67768750000E+06;  8.3662E-07   ; 4.61294E-06  
   2.67937500000E+06; -2.58808E-06  ; 6.06372E-06  
   2.68106250000E+06; -2.84488E-06  ; 6.90077E-06  
   2.68275000000E+06;  1.22287E-07  ; 7.02825E-06  
   2.68443750000E+06; -5.5369E-07   ; 6.66433E-06  
   2.68612500000E+06; -6.92998E-07  ; 6.48791E-06  
   2.68781250000E+06; -1.12928E-06  ; 5.0406E-06   
   2.68950000000E+06; -2.45291E-06  ; 6.10275E-06  
   2.69118750000E+06; -1.70966E-06  ; 6.60663E-06  
   2.69287500000E+06; -1.99273E-06  ; 7.55343E-06  
   2.69456250000E+06; -1.4214E-06   ; 6.98488E-06  
   2.69625000000E+06; -6.3953E-07   ; 6.2672E-06   
   2.69793750000E+06; -1.7113E-06   ; 6.22007E-06  
   2.69962500000E+06; -4.47131E-07  ; 4.80177E-06  
   2.70131250000E+06; -2.03491E-06  ; 5.96207E-06  
   2.70300000000E+06; -3.06988E-07  ; 6.17471E-06  
   2.70468750000E+06; -2.1805E-06   ; 7.48497E-06  
   2.70637500000E+06; -1.65117E-06  ; 7.44257E-06  
   2.70806250000E+06; -4.8159E-07   ; 8.13286E-06  
   2.70975000000E+06; -2.29999E-07  ; 8.58307E-06  
   2.71143750000E+06; -1.04195E-06  ; 7.73208E-06  
   2.71312500000E+06; -2.63447E-06  ; 7.36303E-06  
   2.71481250000E+06; -1.67478E-06  ; 6.62551E-06  
   2.71650000000E+06; -2.74689E-07  ; 7.6824E-06   
   2.71818750000E+06;  2.2003E-07   ; 6.58222E-06  
   2.71987500000E+06; -2.33995E-07  ; 6.67312E-06  
   2.72156250000E+06; -1.24347E-06  ; 4.68345E-06  
   2.72325000000E+06; -1.04055E-06  ; 5.96851E-06  
   2.72493750000E+06; -1.89461E-06  ; 6.11313E-06  
   2.72662500000E+06; -2.6759E-06   ; 4.54417E-06  
   2.72831250000E+06; -1.10307E-06  ; 4.76981E-06  
   2.73000000000E+06; -1.42346E-06  ; 6.43823E-06  
   2.73168750000E+06; -1.64235E-06  ; 7.60966E-06  
   2.73337500000E+06; -1.53426E-06  ; 6.58606E-06  
   2.73506250000E+06; -2.57591E-06  ; 6.57985E-06  
   2.73675000000E+06; -2.54226E-06  ; 6.70216E-06  
   2.73843750000E+06; -1.92392E-06  ; 5.48744E-06  
   2.74012500000E+06; -1.52088E-06  ; 6.85613E-06  
   2.74181250000E+06; -1.59204E-06  ; 6.10688E-06  
   2.74350000000E+06; -1.71568E-06  ; 6.00822E-06  
   2.74518750000E+06; -3.17373E-06  ; 4.93607E-06  
   2.74687500000E+06; -9.9426E-07   ; 6.4359E-06   
   2.74856250000E+06; -1.20535E-06  ; 4.85477E-06  
   2.75025000000E+06; -6.12938E-07  ; 7.65031E-06  
   2.75193750000E+06; -2.56084E-06  ; 6.42847E-06  
   2.75362500000E+06; -1.574E-06    ; 5.4145E-06   
   2.75531250000E+06;  3.23965E-07  ; 6.13497E-06  
   2.75700000000E+06;  1.3838E-07   ; 6.8634E-06   
   2.75868750000E+06; -4.0029E-07   ; 5.26908E-06  
   2.76037500000E+06;  1.20162E-07  ; 5.22594E-06  
   2.76206250000E+06; -1.20733E-06  ; 6.60226E-06  
   2.76375000000E+06; -2.26343E-06  ; 7.39971E-06  
   2.76543750000E+06; -7.85813E-07  ; 7.80074E-06  
   2.76712500000E+06; -1.33108E-06  ; 6.58793E-06  
   2.76881250000E+06; -2.07071E-06  ; 5.32607E-06  
   2.77050000000E+06; -2.50257E-07  ; 7.36865E-06  
   2.77218750000E+06; -4.78006E-07  ; 5.45987E-06  
   2.77387500000E+06;  3.94384E-07  ; 7.02465E-06  
   2.77556250000E+06; -1.67326E-06  ; 6.13307E-06  
   2.77725000000E+06; -1.26756E-06  ; 6.52056E-06  
   2.77893750000E+06; -1.91954E-06  ; 5.53372E-06  
   2.78062500000E+06; -8.56391E-07  ; 5.62213E-06  
   2.78231250000E+06; -2.03366E-06  ; 6.4788E-06   
   2.78400000000E+06; -2.53909E-06  ; 6.09795E-06  
   2.78568750000E+06; -8.69413E-07  ; 6.70347E-06  
   2.78737500000E+06; -1.9793E-06   ; 6.67295E-06  
   2.78906250000E+06; -2.84226E-06  ; 5.45017E-06  
   2.79075000000E+06; -9.84626E-07  ; 6.2453E-06   
   2.79243750000E+06; -1.0447E-06   ; 7.88428E-06  
   2.79412500000E+06;  3.7611E-07   ; 5.58552E-06  
   2.79581250000E+06; -1.1278E-06   ; 6.59858E-06  
   2.79750000000E+06; -1.17707E-06  ; 5.73797E-06  
   2.79918750000E+06; -1.77378E-06  ; 5.50532E-06  
   2.80087500000E+06; -1.15643E-06  ; 6.72418E-06  
   2.80256250000E+06; -2.65771E-06  ; 7.41957E-06  
   2.80425000000E+06; -1.97526E-06  ; 7.84627E-06  
   2.80593750000E+06;  3.14212E-07  ; 5.8823E-06   
   2.80762500000E+06; -8.61325E-07  ; 6.29145E-06  
   2.80931250000E+06; -9.93176E-07  ; 6.60437E-06  
   2.81100000000E+06; -2.01348E-06  ; 6.27206E-06  
   2.81268750000E+06; -9.16327E-07  ; 7.53053E-06  
   2.81437500000E+06; -4.9979E-07   ; 6.67878E-06  
   2.81606250000E+06; -1.66633E-06  ; 7.41195E-06  
   2.81775000000E+06; -1.89333E-06  ; 6.98569E-06  
   2.81943750000E+06;  1.10914E-07  ; 6.18133E-06  
   2.82112500000E+06; -1.32915E-06  ; 5.16124E-06  
   2.82281250000E+06; -1.78946E-06  ; 5.90817E-06  
   2.82450000000E+06;  1.24963E-07  ; 6.25994E-06  
   2.82618750000E+06;  6.41359E-07  ; 7.50261E-06  
   2.82787500000E+06; -7.18231E-07  ; 4.99243E-06  
   2.82956250000E+06;  5.02653E-09  ; 5.11596E-06  
   2.83125000000E+06; -9.62012E-07  ; 5.51991E-06  
   2.83293750000E+06; -3.72128E-07  ; 4.82293E-06  
   2.83462500000E+06; -1.77191E-06  ; 7.45706E-06  
   2.83631250000E+06;  2.23246E-07  ; 5.65577E-06  
   2.83800000000E+06; -1.73916E-06  ; 8.06795E-06  
   2.83968750000E+06; -1.50239E-06  ; 6.55859E-06  
   2.84137500000E+06; -1.14988E-06  ; 6.05637E-06  
   2.84306250000E+06; -1.6218E-06   ; 7.42492E-06  
   2.84475000000E+06;  6.99997E-08  ; 7.38021E-06  
   2.84643750000E+06; -1.01616E-06  ; 6.02061E-06  
   2.84812500000E+06; -1.7296E-06   ; 5.32033E-06  
   2.84981250000E+06; -3.97739E-08  ; 7.0336E-06   
   2.85150000000E+06; -1.52439E-06  ; 6.28095E-06  
   2.85318750000E+06; -1.97363E-06  ; 6.59403E-06  
   2.85487500000E+06; -1.76352E-06  ; 5.7214E-06   
   2.85656250000E+06; -1.84152E-06  ; 6.58942E-06  
   2.85825000000E+06; -3.98079E-06  ; 5.75877E-06  
   2.85993750000E+06; -4.7142E-07   ; 7.14492E-06  
   2.86162500000E+06;  2.62099E-09  ; 7.06735E-06  
   2.86331250000E+06;  3.11633E-09  ; 4.99423E-06  
   2.86500000000E+06; -1.21203E-06  ; 6.79947E-06  
   2.86668750000E+06; -1.38388E-07  ; 6.88172E-06  
   2.86837500000E+06;  7.37167E-07  ; 7.27712E-06  
   2.87006250000E+06; -1.04835E-06  ; 7.47563E-06  
   2.87175000000E+06; -2.44884E-07  ; 4.99684E-06  
   2.87343750000E+06; -9.60824E-07  ; 6.95111E-06  
   2.87512500000E+06;  4.24213E-07  ; 6.50767E-06  
   2.87681250000E+06; -2.8684E-06   ; 7.01296E-06  
   2.87850000000E+06; -3.4178E-06   ; 5.877E-06    
   2.88018750000E+06; -1.56464E-06  ; 5.45991E-06  
   2.88187500000E+06; -8.68685E-07  ; 6.12311E-06  
   2.88356250000E+06; -2.2785E-06   ; 8.21885E-06  
   2.88525000000E+06; -2.22244E-06  ; 5.07742E-06  
   2.88693750000E+06; -1.66249E-06  ; 8.25136E-06  
   2.88862500000E+06; -1.69828E-06  ; 5.71619E-06  
   2.89031250000E+06; -2.30479E-06  ; 7.07912E-06  
   2.89200000000E+06; -7.61258E-07  ; 7.14127E-06  
   2.89368750000E+06; -1.71847E-06  ; 6.77893E-06  
   2.89537500000E+06; -8.40236E-07  ; 6.31715E-06  
   2.89706250000E+06; -2.59223E-07  ; 4.8632E-06   
   2.89875000000E+06; -1.68864E-06  ; 6.55991E-06  
   2.90043750000E+06; -2.31933E-07  ; 6.28375E-06  
   2.90212500000E+06; -3.73291E-06  ; 6.63635E-06  
   2.90381250000E+06; -1.36563E-06  ; 6.39958E-06  
   2.90550000000E+06; -2.01752E-06  ; 8.8776E-06   
   2.90718750000E+06; -2.92342E-06  ; 6.46408E-06  
   2.90887500000E+06; -2.43767E-06  ; 5.75256E-06  
   2.91056250000E+06; -2.17935E-06  ; 8.90667E-06  
   2.91225000000E+06; -8.50422E-07  ; 6.28788E-06  
   2.91393750000E+06; -6.6541E-07   ; 5.82746E-06  
   2.91562500000E+06; -9.80727E-07  ; 5.75336E-06  
   2.91731250000E+06; -1.23199E-06  ; 7.11751E-06  
   2.91900000000E+06; -9.85633E-07  ; 6.95425E-06  
   2.92068750000E+06; -3.16087E-06  ; 8.56875E-06  
   2.92237500000E+06; -9.18374E-07  ; 6.12943E-06  
   2.92406250000E+06; -3.81202E-07  ; 6.72866E-06  
   2.92575000000E+06; -5.25045E-07  ; 7.92319E-06  
   2.92743750000E+06; -2.57383E-06  ; 5.53509E-06  
   2.92912500000E+06; -2.89459E-06  ; 6.56781E-06  
   2.93081250000E+06;  5.2208E-07   ; 6.47651E-06  
   2.93250000000E+06; -1.63389E-06  ; 7.81596E-06  
   2.93418750000E+06; -1.80375E-06  ; 7.43986E-06  
   2.93587500000E+06; -9.14314E-07  ; 8.16151E-06  
   2.93756250000E+06; -9.13028E-07  ; 7.44811E-06  
   2.93925000000E+06; -1.461E-06    ; 7.05365E-06  
   2.94093750000E+06; -8.83901E-07  ; 5.43535E-06  
   2.94262500000E+06; -4.05798E-07  ; 6.89708E-06  
   2.94431250000E+06; -2.48471E-06  ; 5.69882E-06  
   2.94600000000E+06; -5.49791E-07  ; 7.32945E-06  
   2.94768750000E+06; -1.93521E-06  ; 8.08272E-06  
   2.94937500000E+06; -2.61275E-06  ; 8.08287E-06  
   2.95106250000E+06; -1.63527E-06  ; 8.27603E-06  
   2.95275000000E+06; -1.82989E-06  ; 7.01017E-06  
   2.95443750000E+06; -9.34059E-07  ; 7.49155E-06  
   2.95612500000E+06; -2.25067E-06  ; 6.73077E-06  
   2.95781250000E+06; -1.34136E-06  ; 6.32925E-06  
   2.95950000000E+06; -1.11553E-06  ; 6.87989E-06  
   2.96118750000E+06; -3.94851E-07  ; 8.03954E-06  
   2.96287500000E+06; -6.78704E-08  ; 6.809E-06    
   2.96456250000E+06; -2.2001E-06   ; 6.72074E-06  
   2.96625000000E+06; -2.56355E-06  ; 8.45326E-06  
   2.96793750000E+06; -2.97072E-06  ; 6.85463E-06  
   2.96962500000E+06;  5.44909E-07  ; 5.7629E-06   
   2.97131250000E+06;  3.47203E-07  ; 6.85806E-06  
   2.97300000000E+06; -2.12964E-06  ; 6.15557E-06  
   2.97468750000E+06; -8.15648E-07  ; 6.97692E-06  
   2.97637500000E+06; -1.19228E-06  ; 6.72613E-06  
   2.97806250000E+06; -2.01002E-06  ; 6.36936E-06  
   2.97975000000E+06; -1.01068E-06  ; 5.11996E-06  
   2.98143750000E+06; -1.9294E-06   ; 7.75108E-06  
   2.98312500000E+06; -2.39209E-06  ; 7.87562E-06  
   2.98481250000E+06; -4.18423E-07  ; 4.68502E-06  
   2.98650000000E+06; -1.30802E-06  ; 6.05997E-06  
   2.98818750000E+06; -6.65218E-07  ; 7.25721E-06  
   2.98987500000E+06; -4.24015E-07  ; 6.19896E-06  
   2.99156250000E+06; -2.48552E-06  ; 6.75734E-06  
   2.99325000000E+06; -2.78258E-06  ; 7.25645E-06  
   2.99493750000E+06; -1.3161E-06   ; 6.16805E-06  
   2.99662500000E+06; -2.45749E-07  ; 6.85256E-06  
   2.99831250000E+06;  2.67511E-07  ; 8.57628E-06  
   3.00000000000E+06; -1.78647E-06  ; 6.49346E-06  
