
  ZVRE, 2.05

  stimulus-start        ; stimulus-stop       ; stimulus-unit       ; nof-points; parameter-type; impedance-ohm
  3.00000000000E+05     ; 2.40000000000E+06   ; Hz                  ; 801       ; RATIO_B2_B1   ; 50        

  conversion            ; time-domain         ; data-format         ; param-unit; smoothing     ; trace-math
  none                  ; none                ; RI                  ; none      ; none          ; none

  sweep-mode-type       ; notlinear-meas-mode 
  FUNDAMENTAL           ; none                


  freq              ;  reRATIO_B2_B ; imRATIO_B2_B  
   3.00000000000E+05; -1.18436E-06  ; 1.20936E-05  
   3.02625000000E+05; -3.58576E-06  ; 1.17701E-05  
   3.05250000000E+05; -1.48578E-06  ; 1.22959E-05  
   3.07875000000E+05; -5.33798E-07  ; 1.11376E-05  
   3.10500000000E+05; -7.09452E-07  ; 1.11301E-05  
   3.13125000000E+05; -2.34531E-06  ; 1.04664E-05  
   3.15750000000E+05; -1.57259E-06  ; 1.10672E-05  
   3.18375000000E+05; -3.68899E-07  ; 1.03033E-05  
   3.21000000000E+05; -3.87278E-07  ; 1.1318E-05   
   3.23625000000E+05; -2.85631E-06  ; 1.08635E-05  
   3.26250000000E+05;  1.6247E-07   ; 1.1866E-05   
   3.28875000000E+05; -2.9703E-06   ; 1.32641E-05  
   3.31500000000E+05; -2.79978E-06  ; 1.30845E-05  
   3.34125000000E+05; -3.13429E-06  ; 1.30654E-05  
   3.36750000000E+05; -1.87606E-06  ; 1.26655E-05  
   3.39375000000E+05; -9.90275E-07  ; 1.25711E-05  
   3.42000000000E+05; -2.42902E-06  ; 1.034E-05    
   3.44625000000E+05; -2.57188E-06  ; 1.33519E-05  
   3.47250000000E+05; -2.8548E-06   ; 1.24193E-05  
   3.49875000000E+05; -3.62977E-06  ; 1.2877E-05   
   3.52500000000E+05; -1.81936E-06  ; 1.19209E-05  
   3.55125000000E+05; -2.13626E-06  ; 1.09108E-05  
   3.57750000000E+05; -1.43971E-06  ; 1.1812E-05   
   3.60375000000E+05; -7.96035E-07  ; 1.27833E-05  
   3.63000000000E+05; -3.09536E-06  ; 1.31139E-05  
   3.65625000000E+05; -1.97391E-06  ; 1.31178E-05  
   3.68250000000E+05; -2.84571E-06  ; 1.23496E-05  
   3.70875000000E+05; -2.1912E-07   ; 1.46092E-05  
   3.73500000000E+05; -1.74015E-06  ; 1.2611E-05   
   3.76125000000E+05; -1.92202E-06  ; 1.43768E-05  
   3.78750000000E+05; -1.54417E-06  ; 1.44105E-05  
   3.81375000000E+05; -1.28452E-06  ; 1.35589E-05  
   3.84000000000E+05; -2.49753E-06  ; 1.4374E-05   
   3.86625000000E+05; -2.36317E-06  ; 1.39651E-05  
   3.89250000000E+05; -1.30673E-06  ; 1.36597E-05  
   3.91875000000E+05; -1.76002E-06  ; 1.30719E-05  
   3.94500000000E+05; -1.92967E-06  ; 1.53448E-05  
   3.97125000000E+05; -2.64222E-06  ; 1.42476E-05  
   3.99750000000E+05; -2.15452E-06  ; 1.4051E-05   
   4.02375000000E+05; -2.76307E-06  ; 1.36473E-05  
   4.05000000000E+05; -2.54414E-06  ; 1.56626E-05  
   4.07625000000E+05; -3.25202E-06  ; 1.5163E-05   
   4.10250000000E+05; -4.07236E-06  ; 1.66194E-05  
   4.12875000000E+05; -2.41201E-06  ; 1.54898E-05  
   4.15500000000E+05; -3.58353E-06  ; 1.36196E-05  
   4.18125000000E+05; -2.70008E-06  ; 1.35597E-05  
   4.20750000000E+05; -2.8601E-06   ; 1.40586E-05  
   4.23375000000E+05; -4.05489E-06  ; 1.33832E-05  
   4.26000000000E+05; -3.14381E-06  ; 1.44554E-05  
   4.28625000000E+05; -2.03285E-06  ; 1.58945E-05  
   4.31250000000E+05; -3.49319E-06  ; 1.58695E-05  
   4.33875000000E+05; -1.65405E-06  ; 1.53525E-05  
   4.36500000000E+05; -3.10213E-06  ; 1.66417E-05  
   4.39125000000E+05; -3.13018E-06  ; 1.57667E-05  
   4.41750000000E+05; -3.28579E-06  ; 1.63138E-05  
   4.44375000000E+05; -3.52983E-06  ; 1.53773E-05  
   4.47000000000E+05; -4.06714E-06  ; 1.60908E-05  
   4.49625000000E+05; -3.33111E-06  ; 1.76793E-05  
   4.52250000000E+05; -3.14219E-06  ; 1.79192E-05  
   4.54875000000E+05; -2.65192E-06  ; 1.68774E-05  
   4.57500000000E+05; -2.65686E-06  ; 1.53745E-05  
   4.60125000000E+05; -4.15617E-06  ; 1.65777E-05  
   4.62750000000E+05; -2.40927E-06  ; 1.44158E-05  
   4.65375000000E+05; -2.85808E-06  ; 1.64043E-05  
   4.68000000000E+05; -3.69021E-06  ; 1.6602E-05   
   4.70625000000E+05; -4.18361E-06  ; 1.63114E-05  
   4.73250000000E+05; -2.98432E-06  ; 1.79392E-05  
   4.75875000000E+05; -3.47337E-06  ; 1.77261E-05  
   4.78500000000E+05; -3.39991E-06  ; 1.7422E-05   
   4.81125000000E+05; -4.72049E-06  ; 1.73839E-05  
   4.83750000000E+05; -2.80185E-06  ; 1.73683E-05  
   4.86375000000E+05; -2.43062E-06  ; 1.8097E-05   
   4.89000000000E+05; -4.39864E-06  ; 1.78328E-05  
   4.91625000000E+05; -2.74155E-06  ; 1.69155E-05  
   4.94250000000E+05; -2.77317E-06  ; 1.79305E-05  
   4.96875000000E+05; -1.78474E-06  ; 1.89441E-05  
   4.99500000000E+05; -2.35137E-06  ; 1.73047E-05  
   5.02125000000E+05; -3.55299E-06  ; 1.80004E-05  
   5.04750000000E+05; -4.46412E-06  ; 1.90116E-05  
   5.07375000000E+05; -3.8871E-06   ; 1.82932E-05  
   5.10000000000E+05; -3.27645E-06  ; 1.7566E-05   
   5.12625000000E+05; -3.29396E-06  ; 1.8641E-05   
   5.15250000000E+05; -3.56227E-06  ; 1.91485E-05  
   5.17875000000E+05; -3.20382E-06  ; 1.75901E-05  
   5.20500000000E+05; -2.92836E-06  ; 1.95885E-05  
   5.23125000000E+05; -3.46671E-06  ; 1.92248E-05  
   5.25750000000E+05; -3.07369E-06  ; 1.98779E-05  
   5.28375000000E+05; -4.05642E-06  ; 1.7698E-05   
   5.31000000000E+05; -3.8432E-06   ; 2.00357E-05  
   5.33625000000E+05; -3.88188E-06  ; 1.88356E-05  
   5.36250000000E+05; -3.3354E-06   ; 2.00132E-05  
   5.38875000000E+05; -4.3659E-06   ; 1.8911E-05   
   5.41500000000E+05; -4.51159E-06  ; 2.00417E-05  
   5.44125000000E+05; -4.04471E-06  ; 2.05574E-05  
   5.46750000000E+05; -2.85782E-06  ; 1.86893E-05  
   5.49375000000E+05; -3.08643E-06  ; 1.89807E-05  
   5.52000000000E+05; -3.49677E-06  ; 2.02146E-05  
   5.54625000000E+05; -3.8603E-06   ; 2.1062E-05   
   5.57250000000E+05; -2.34038E-06  ; 2.14682E-05  
   5.59875000000E+05; -2.96309E-06  ; 1.94682E-05  
   5.62500000000E+05; -3.98332E-06  ; 2.04506E-05  
   5.65125000000E+05; -4.92856E-06  ; 2.00131E-05  
   5.67750000000E+05; -2.07267E-06  ; 2.05131E-05  
   5.70375000000E+05; -3.68269E-06  ; 2.03023E-05  
   5.73000000000E+05; -3.2537E-06   ; 2.07271E-05  
   5.75625000000E+05; -3.05747E-06  ; 1.95461E-05  
   5.78250000000E+05; -3.16694E-06  ; 2.11903E-05  
   5.80875000000E+05; -3.94757E-06  ; 2.14154E-05  
   5.83500000000E+05; -3.2118E-06   ; 2.13277E-05  
   5.86125000000E+05; -3.93018E-06  ; 2.14193E-05  
   5.88750000000E+05; -3.65095E-06  ; 2.18094E-05  
   5.91375000000E+05; -3.28083E-06  ; 2.17216E-05  
   5.94000000000E+05; -4.30828E-06  ; 2.10538E-05  
   5.96625000000E+05; -4.26836E-06  ; 2.18395E-05  
   5.99250000000E+05; -5.06044E-06  ; 2.18527E-05  
   6.01875000000E+05; -3.60335E-06  ; 2.11601E-05  
   6.04500000000E+05; -4.40332E-06  ; 2.25006E-05  
   6.07125000000E+05; -3.82489E-06  ; 2.24767E-05  
   6.09750000000E+05; -4.28035E-06  ; 2.28583E-05  
   6.12375000000E+05; -3.28589E-06  ; 2.19517E-05  
   6.15000000000E+05; -2.96817E-06  ; 2.20194E-05  
   6.17625000000E+05; -3.09513E-06  ; 2.19588E-05  
   6.20250000000E+05; -4.5021E-06   ; 2.13623E-05  
   6.22875000000E+05; -3.67649E-06  ; 2.27235E-05  
   6.25500000000E+05; -3.23529E-06  ; 2.15328E-05  
   6.28125000000E+05; -3.8911E-06   ; 2.32307E-05  
   6.30750000000E+05; -3.6785E-06   ; 2.30833E-05  
   6.33375000000E+05; -4.30612E-06  ; 2.33977E-05  
   6.36000000000E+05; -4.26295E-06  ; 2.23761E-05  
   6.38625000000E+05; -3.34383E-06  ; 2.35413E-05  
   6.41250000000E+05; -4.50237E-06  ; 2.23193E-05  
   6.43875000000E+05; -4.38427E-06  ; 2.2073E-05   
   6.46500000000E+05; -3.4894E-06   ; 2.46867E-05  
   6.49125000000E+05; -4.03688E-06  ; 2.26159E-05  
   6.51750000000E+05; -3.89591E-06  ; 2.38694E-05  
   6.54375000000E+05; -4.0707E-06   ; 2.3619E-05   
   6.57000000000E+05; -2.92793E-06  ; 2.31349E-05  
   6.59625000000E+05; -3.70442E-06  ; 2.3972E-05   
   6.62250000000E+05; -3.83596E-06  ; 2.34069E-05  
   6.64875000000E+05; -3.77953E-06  ; 2.36804E-05  
   6.67500000000E+05; -3.99051E-06  ; 2.4954E-05   
   6.70125000000E+05; -4.28933E-06  ; 2.43405E-05  
   6.72750000000E+05; -3.96123E-06  ; 2.4784E-05   
   6.75375000000E+05; -3.51963E-06  ; 2.55491E-05  
   6.78000000000E+05; -3.76326E-06  ; 2.45429E-05  
   6.80625000000E+05; -4.95995E-06  ; 2.43391E-05  
   6.83250000000E+05; -4.69741E-06  ; 2.34994E-05  
   6.85875000000E+05; -4.1327E-06   ; 2.49164E-05  
   6.88500000000E+05; -3.83665E-06  ; 2.46806E-05  
   6.91125000000E+05; -3.68977E-06  ; 2.445E-05    
   6.93750000000E+05; -4.72286E-06  ; 2.47021E-05  
   6.96375000000E+05; -3.49879E-06  ; 2.535E-05    
   6.99000000000E+05; -4.58101E-06  ; 2.50726E-05  
   7.01625000000E+05; -5.1151E-06   ; 2.49596E-05  
   7.04250000000E+05; -3.19675E-06  ; 2.48768E-05  
   7.06875000000E+05; -4.25002E-06  ; 2.60534E-05  
   7.09500000000E+05; -5.14964E-06  ; 2.60249E-05  
   7.12125000000E+05; -3.97879E-06  ; 2.60387E-05  
   7.14750000000E+05; -5.08286E-06  ; 2.57177E-05  
   7.17375000000E+05; -3.80414E-06  ; 2.56823E-05  
   7.20000000000E+05; -4.23066E-06  ; 2.50302E-05  
   7.22625000000E+05; -3.45748E-06  ; 2.60514E-05  
   7.25250000000E+05; -3.90542E-06  ; 2.54187E-05  
   7.27875000000E+05; -5.13674E-06  ; 2.64143E-05  
   7.30500000000E+05; -4.43159E-06  ; 2.71772E-05  
   7.33125000000E+05; -4.62826E-06  ; 2.87877E-05  
   7.35750000000E+05; -5.01463E-06  ; 2.68714E-05  
   7.38375000000E+05; -3.7267E-06   ; 2.75343E-05  
   7.41000000000E+05; -3.56216E-06  ; 2.68169E-05  
   7.43625000000E+05; -5.39445E-06  ; 2.67988E-05  
   7.46250000000E+05; -4.2564E-06   ; 2.74257E-05  
   7.48875000000E+05; -5.5907E-06   ; 2.79499E-05  
   7.51500000000E+05; -4.99939E-06  ; 2.6544E-05   
   7.54125000000E+05; -3.46836E-06  ; 2.71662E-05  
   7.56750000000E+05; -5.03614E-06  ; 2.77084E-05  
   7.59375000000E+05; -4.12488E-06  ; 2.74171E-05  
   7.62000000000E+05; -2.88969E-06  ; 2.73722E-05  
   7.64625000000E+05; -4.43941E-06  ; 2.80242E-05  
   7.67250000000E+05; -3.44376E-06  ; 2.84259E-05  
   7.69875000000E+05; -4.21685E-06  ; 2.81311E-05  
   7.72500000000E+05; -4.12842E-06  ; 2.87389E-05  
   7.75125000000E+05; -4.8899E-06   ; 2.82477E-05  
   7.77750000000E+05; -4.23336E-06  ; 2.87328E-05  
   7.80375000000E+05; -3.18803E-06  ; 2.84947E-05  
   7.83000000000E+05; -4.68698E-06  ; 2.80873E-05  
   7.85625000000E+05; -4.60437E-06  ; 2.81324E-05  
   7.88250000000E+05; -4.22494E-06  ; 2.78114E-05  
   7.90875000000E+05; -4.2504E-06   ; 2.83779E-05  
   7.93500000000E+05; -4.66761E-06  ; 2.82223E-05  
   7.96125000000E+05; -3.96155E-06  ; 2.82972E-05  
   7.98750000000E+05; -3.95324E-06  ; 2.88954E-05  
   8.01375000000E+05; -5.25405E-06  ; 2.90167E-05  
   8.04000000000E+05; -4.72469E-06  ; 2.95884E-05  
   8.06625000000E+05; -2.81428E-06  ; 2.95198E-05  
   8.09250000000E+05; -3.24617E-06  ; 2.89485E-05  
   8.11875000000E+05; -4.78464E-06  ; 2.89389E-05  
   8.14500000000E+05; -4.95306E-06  ; 2.92682E-05  
   8.17125000000E+05; -4.34334E-06  ; 2.95192E-05  
   8.19750000000E+05; -5.24916E-06  ; 2.98201E-05  
   8.22375000000E+05; -4.28001E-06  ; 2.95384E-05  
   8.25000000000E+05; -4.24089E-06  ; 3.01511E-05  
   8.27625000000E+05; -4.44261E-06  ; 3.02602E-05  
   8.30250000000E+05; -3.74512E-06  ; 2.99516E-05  
   8.32875000000E+05; -4.8602E-06   ; 2.89517E-05  
   8.35500000000E+05; -4.6816E-06   ; 3.06056E-05  
   8.38125000000E+05; -5.12565E-06  ; 3.10387E-05  
   8.40750000000E+05; -5.16135E-06  ; 3.0023E-05   
   8.43375000000E+05; -4.40307E-06  ; 3.03281E-05  
   8.46000000000E+05; -5.09808E-06  ; 2.98666E-05  
   8.48625000000E+05; -3.91436E-06  ; 3.17221E-05  
   8.51250000000E+05; -4.35161E-06  ; 3.01388E-05  
   8.53875000000E+05; -4.12597E-06  ; 3.09368E-05  
   8.56500000000E+05; -4.51207E-06  ; 3.16092E-05  
   8.59125000000E+05; -5.38569E-06  ; 3.13971E-05  
   8.61750000000E+05; -4.60478E-06  ; 3.10418E-05  
   8.64375000000E+05; -4.2722E-06   ; 3.10158E-05  
   8.67000000000E+05; -3.99156E-06  ; 3.11551E-05  
   8.69625000000E+05; -5.08888E-06  ; 3.20579E-05  
   8.72250000000E+05; -5.3727E-06   ; 3.15872E-05  
   8.74875000000E+05; -4.75324E-06  ; 3.13022E-05  
   8.77500000000E+05; -4.32234E-06  ; 3.13914E-05  
   8.80125000000E+05; -4.38356E-06  ; 3.16514E-05  
   8.82750000000E+05; -5.71237E-06  ; 3.22772E-05  
   8.85375000000E+05; -5.35056E-06  ; 3.29613E-05  
   8.88000000000E+05; -4.55292E-06  ; 3.3129E-05   
   8.90625000000E+05; -5.13368E-06  ; 3.13423E-05  
   8.93250000000E+05; -5.74619E-06  ; 3.25601E-05  
   8.95875000000E+05; -3.65624E-06  ; 3.21185E-05  
   8.98500000000E+05; -4.64973E-06  ; 3.23563E-05  
   9.01125000000E+05; -5.54627E-06  ; 3.26721E-05  
   9.03750000000E+05; -4.47071E-06  ; 3.19543E-05  
   9.06375000000E+05; -4.61225E-06  ; 3.27711E-05  
   9.09000000000E+05; -4.90529E-06  ; 3.37037E-05  
   9.11625000000E+05; -4.34048E-06  ; 3.30579E-05  
   9.14250000000E+05; -5.31938E-06  ; 3.28068E-05  
   9.16875000000E+05; -5.04411E-06  ; 3.3856E-05   
   9.19500000000E+05; -5.40622E-06  ; 3.49243E-05  
   9.22125000000E+05; -5.43507E-06  ; 3.47724E-05  
   9.24750000000E+05; -5.14513E-06  ; 3.35529E-05  
   9.27375000000E+05; -5.7279E-06   ; 3.3226E-05   
   9.30000000000E+05; -4.18937E-06  ; 3.34205E-05  
   9.32625000000E+05; -5.38773E-06  ; 3.44525E-05  
   9.35250000000E+05; -5.95075E-06  ; 3.36026E-05  
   9.37875000000E+05; -4.57249E-06  ; 3.44003E-05  
   9.40500000000E+05; -6.41642E-06  ; 3.40164E-05  
   9.43125000000E+05; -5.32054E-06  ; 3.34208E-05  
   9.45750000000E+05; -5.083E-06    ; 3.39203E-05  
   9.48375000000E+05; -5.0495E-06   ; 3.42937E-05  
   9.51000000000E+05; -5.29903E-06  ; 3.50647E-05  
   9.53625000000E+05; -5.65011E-06  ; 3.45476E-05  
   9.56250000000E+05; -5.09611E-06  ; 3.52248E-05  
   9.58875000000E+05; -3.98266E-06  ; 3.51671E-05  
   9.61500000000E+05; -4.84513E-06  ; 3.47934E-05  
   9.64125000000E+05; -4.82692E-06  ; 3.48375E-05  
   9.66750000000E+05; -5.23504E-06  ; 3.45227E-05  
   9.69375000000E+05; -4.56395E-06  ; 3.55665E-05  
   9.72000000000E+05; -5.6145E-06   ; 3.51188E-05  
   9.74625000000E+05; -4.98653E-06  ; 3.57339E-05  
   9.77250000000E+05; -6.51097E-06  ; 3.60532E-05  
   9.79875000000E+05; -5.38016E-06  ; 3.64951E-05  
   9.82500000000E+05; -5.41053E-06  ; 3.58255E-05  
   9.85125000000E+05; -5.75672E-06  ; 3.6576E-05   
   9.87750000000E+05; -5.65295E-06  ; 3.5582E-05   
   9.90375000000E+05; -5.44784E-06  ; 3.57991E-05  
   9.93000000000E+05; -5.01493E-06  ; 3.59537E-05  
   9.95625000000E+05; -5.50028E-06  ; 3.74583E-05  
   9.98250000000E+05; -5.11409E-06  ; 3.67817E-05  
   1.00087500000E+06; -4.72236E-06  ; 3.66822E-05  
   1.00350000000E+06; -5.18882E-06  ; 3.66099E-05  
   1.00612500000E+06; -5.18928E-06  ; 3.70748E-05  
   1.00875000000E+06; -4.65487E-06  ; 3.67267E-05  
   1.01137500000E+06; -5.8979E-06   ; 3.641E-05    
   1.01400000000E+06; -5.41826E-06  ; 3.57615E-05  
   1.01662500000E+06; -5.42503E-06  ; 3.67659E-05  
   1.01925000000E+06; -5.5369E-06   ; 3.85899E-05  
   1.02187500000E+06; -5.9636E-06   ; 3.76903E-05  
   1.02450000000E+06; -5.61463E-06  ; 3.7713E-05   
   1.02712500000E+06; -4.9664E-06   ; 3.67506E-05  
   1.02975000000E+06; -5.6907E-06   ; 3.82601E-05  
   1.03237500000E+06; -5.13303E-06  ; 3.77724E-05  
   1.03500000000E+06; -7.22398E-06  ; 3.76788E-05  
   1.03762500000E+06; -5.1969E-06   ; 3.70896E-05  
   1.04025000000E+06; -4.76911E-06  ; 3.89931E-05  
   1.04287500000E+06; -5.58997E-06  ; 3.9116E-05   
   1.04550000000E+06; -5.62643E-06  ; 3.944E-05    
   1.04812500000E+06; -4.87758E-06  ; 3.82886E-05  
   1.05075000000E+06; -5.6255E-06   ; 3.79732E-05  
   1.05337500000E+06; -5.69821E-06  ; 3.85443E-05  
   1.05600000000E+06; -5.93558E-06  ; 3.84507E-05  
   1.05862500000E+06; -5.67811E-06  ; 3.81862E-05  
   1.06125000000E+06; -5.63328E-06  ; 3.88695E-05  
   1.06387500000E+06; -7.08437E-06  ; 3.92E-05     
   1.06650000000E+06; -5.98561E-06  ; 3.9618E-05   
   1.06912500000E+06; -5.44728E-06  ; 3.94109E-05  
   1.07175000000E+06; -6.09969E-06  ; 3.89582E-05  
   1.07437500000E+06; -6.07786E-06  ; 3.96317E-05  
   1.07700000000E+06; -5.24165E-06  ; 3.9087E-05   
   1.07962500000E+06; -6.23591E-06  ; 3.90423E-05  
   1.08225000000E+06; -5.78145E-06  ; 3.90337E-05  
   1.08487500000E+06; -6.46759E-06  ; 4.07133E-05  
   1.08750000000E+06; -6.22829E-06  ; 3.99659E-05  
   1.09012500000E+06; -6.7244E-06   ; 4.03841E-05  
   1.09275000000E+06; -5.47962E-06  ; 3.95498E-05  
   1.09537500000E+06; -5.86997E-06  ; 4.03319E-05  
   1.09800000000E+06; -4.90682E-06  ; 3.9604E-05   
   1.10062500000E+06; -5.85997E-06  ; 4.0215E-05   
   1.10325000000E+06; -5.84743E-06  ; 4.0257E-05   
   1.10587500000E+06; -5.75169E-06  ; 3.98091E-05  
   1.10850000000E+06; -6.8183E-06   ; 4.05299E-05  
   1.11112500000E+06; -5.26782E-06  ; 4.10239E-05  
   1.11375000000E+06; -6.32141E-06  ; 4.07493E-05  
   1.11637500000E+06; -5.99551E-06  ; 4.06332E-05  
   1.11900000000E+06; -6.3435E-06   ; 4.04511E-05  
   1.12162500000E+06; -6.05684E-06  ; 4.13239E-05  
   1.12425000000E+06; -5.8749E-06   ; 4.17101E-05  
   1.12687500000E+06; -5.78165E-06  ; 4.11364E-05  
   1.12950000000E+06; -6.42649E-06  ; 4.07788E-05  
   1.13212500000E+06; -6.54923E-06  ; 4.11916E-05  
   1.13475000000E+06; -6.41296E-06  ; 4.18631E-05  
   1.13737500000E+06; -6.97396E-06  ; 4.05279E-05  
   1.14000000000E+06; -5.4753E-06   ; 4.19189E-05  
   1.14262500000E+06; -6.25989E-06  ; 4.29439E-05  
   1.14525000000E+06; -5.7799E-06   ; 4.27499E-05  
   1.14787500000E+06; -5.73521E-06  ; 4.20031E-05  
   1.15050000000E+06; -5.90972E-06  ; 4.20464E-05  
   1.15312500000E+06; -6.57467E-06  ; 4.23843E-05  
   1.15575000000E+06; -6.23827E-06  ; 4.23937E-05  
   1.15837500000E+06; -4.93955E-06  ; 4.36501E-05  
   1.16100000000E+06; -5.29346E-06  ; 4.29136E-05  
   1.16362500000E+06; -6.78229E-06  ; 4.29269E-05  
   1.16625000000E+06; -6.2484E-06   ; 4.43791E-05  
   1.16887500000E+06; -5.73194E-06  ; 4.33963E-05  
   1.17150000000E+06; -6.94637E-06  ; 4.36345E-05  
   1.17412500000E+06; -5.74487E-06  ; 4.30901E-05  
   1.17675000000E+06; -6.42357E-06  ; 4.36126E-05  
   1.17937500000E+06; -7.13404E-06  ; 4.31646E-05  
   1.18200000000E+06; -7.35782E-06  ; 4.30304E-05  
   1.18462500000E+06; -6.87632E-06  ; 4.34892E-05  
   1.18725000000E+06; -6.11567E-06  ; 4.42701E-05  
   1.18987500000E+06; -6.14655E-06  ; 4.4479E-05   
   1.19250000000E+06; -7.19311E-06  ; 4.37208E-05  
   1.19512500000E+06; -6.35002E-06  ; 4.47025E-05  
   1.19775000000E+06; -6.24091E-06  ; 4.40196E-05  
   1.20037500000E+06; -6.9098E-06   ; 4.4416E-05   
   1.20300000000E+06; -6.65438E-06  ; 4.51421E-05  
   1.20562500000E+06; -6.45668E-06  ; 4.42472E-05  
   1.20825000000E+06; -7.10822E-06  ; 4.51353E-05  
   1.21087500000E+06; -7.04971E-06  ; 4.45298E-05  
   1.21350000000E+06; -6.70047E-06  ; 4.52088E-05  
   1.21612500000E+06; -7.31407E-06  ; 4.46415E-05  
   1.21875000000E+06; -6.96474E-06  ; 4.53407E-05  
   1.22137500000E+06; -6.95015E-06  ; 4.64959E-05  
   1.22400000000E+06; -7.14603E-06  ; 4.61303E-05  
   1.22662500000E+06; -7.25386E-06  ; 4.51401E-05  
   1.22925000000E+06; -6.91298E-06  ; 4.64061E-05  
   1.23187500000E+06; -7.55046E-06  ; 4.58652E-05  
   1.23450000000E+06; -7.71264E-06  ; 4.51618E-05  
   1.23712500000E+06; -6.66861E-06  ; 4.6136E-05   
   1.23975000000E+06; -6.86786E-06  ; 4.58105E-05  
   1.24237500000E+06; -6.826E-06    ; 4.64809E-05  
   1.24500000000E+06; -6.76467E-06  ; 4.63906E-05  
   1.24762500000E+06; -6.45243E-06  ; 4.66211E-05  
   1.25025000000E+06; -6.38772E-06  ; 4.63284E-05  
   1.25287500000E+06; -6.36174E-06  ; 4.66063E-05  
   1.25550000000E+06; -6.35131E-06  ; 4.71693E-05  
   1.25812500000E+06; -6.3043E-06   ; 4.60559E-05  
   1.26075000000E+06; -6.62586E-06  ; 4.70692E-05  
   1.26337500000E+06; -7.28441E-06  ; 4.73745E-05  
   1.26600000000E+06; -6.87761E-06  ; 4.66973E-05  
   1.26862500000E+06; -6.58086E-06  ; 4.7415E-05   
   1.27125000000E+06; -7.79923E-06  ; 4.7275E-05   
   1.27387500000E+06; -7.34606E-06  ; 4.73312E-05  
   1.27650000000E+06; -6.76461E-06  ; 4.75107E-05  
   1.27912500000E+06; -6.18092E-06  ; 4.6602E-05   
   1.28175000000E+06; -7.91777E-06  ; 4.884E-05    
   1.28437500000E+06; -6.93779E-06  ; 4.6964E-05   
   1.28700000000E+06; -7.46285E-06  ; 4.77533E-05  
   1.28962500000E+06; -6.74824E-06  ; 4.82136E-05  
   1.29225000000E+06; -7.06988E-06  ; 4.86116E-05  
   1.29487500000E+06; -7.61966E-06  ; 4.76633E-05  
   1.29750000000E+06; -7.45653E-06  ; 4.84106E-05  
   1.30012500000E+06; -7.41765E-06  ; 4.80297E-05  
   1.30275000000E+06; -6.44218E-06  ; 4.84068E-05  
   1.30537500000E+06; -7.0946E-06   ; 4.86544E-05  
   1.30800000000E+06; -7.97678E-06  ; 4.95736E-05  
   1.31062500000E+06; -7.57211E-06  ; 4.78683E-05  
   1.31325000000E+06; -7.84074E-06  ; 4.916E-05    
   1.31587500000E+06; -8.90021E-06  ; 4.90921E-05  
   1.31850000000E+06; -7.68209E-06  ; 4.91936E-05  
   1.32112500000E+06; -7.16347E-06  ; 4.90117E-05  
   1.32375000000E+06; -7.66701E-06  ; 4.90194E-05  
   1.32637500000E+06; -8.05528E-06  ; 4.96616E-05  
   1.32900000000E+06; -7.16288E-06  ; 4.93387E-05  
   1.33162500000E+06; -8.15795E-06  ; 5.05981E-05  
   1.33425000000E+06; -7.90769E-06  ; 4.91618E-05  
   1.33687500000E+06; -6.92458E-06  ; 4.94328E-05  
   1.33950000000E+06; -7.17181E-06  ; 5.02167E-05  
   1.34212500000E+06; -6.81156E-06  ; 5.07555E-05  
   1.34475000000E+06; -7.45132E-06  ; 4.98975E-05  
   1.34737500000E+06; -7.88527E-06  ; 5.01785E-05  
   1.35000000000E+06; -7.75639E-06  ; 5.02204E-05  
   1.35262500000E+06; -7.32634E-06  ; 5.13323E-05  
   1.35525000000E+06; -8.18749E-06  ; 5.13994E-05  
   1.35787500000E+06; -7.2676E-06   ; 5.06415E-05  
   1.36050000000E+06; -8.1062E-06   ; 4.98209E-05  
   1.36312500000E+06; -7.71298E-06  ; 5.07915E-05  
   1.36575000000E+06; -7.2463E-06   ; 5.1675E-05   
   1.36837500000E+06; -8.10673E-06  ; 5.16894E-05  
   1.37100000000E+06; -8.51229E-06  ; 5.13374E-05  
   1.37362500000E+06; -7.61114E-06  ; 5.17932E-05  
   1.37625000000E+06; -8.27588E-06  ; 5.18363E-05  
   1.37887500000E+06; -7.40121E-06  ; 5.15888E-05  
   1.38150000000E+06; -8.19426E-06  ; 5.04701E-05  
   1.38412500000E+06; -8.05307E-06  ; 5.21439E-05  
   1.38675000000E+06; -8.19677E-06  ; 5.24641E-05  
   1.38937500000E+06; -8.67108E-06  ; 5.24281E-05  
   1.39200000000E+06; -8.28473E-06  ; 5.209E-05    
   1.39462500000E+06; -8.32814E-06  ; 5.28137E-05  
   1.39725000000E+06; -8.42574E-06  ; 5.21514E-05  
   1.39987500000E+06; -9.54783E-06  ; 5.23248E-05  
   1.40250000000E+06; -7.7162E-06   ; 5.21391E-05  
   1.40512500000E+06; -9.39187E-06  ; 5.31618E-05  
   1.40775000000E+06; -8.74604E-06  ; 5.28479E-05  
   1.41037500000E+06; -7.67981E-06  ; 5.16147E-05  
   1.41300000000E+06; -8.55909E-06  ; 5.35675E-05  
   1.41562500000E+06; -8.44605E-06  ; 5.30439E-05  
   1.41825000000E+06; -7.85567E-06  ; 5.334E-05    
   1.42087500000E+06; -9.51419E-06  ; 5.36867E-05  
   1.42350000000E+06; -8.5325E-06   ; 5.41494E-05  
   1.42612500000E+06; -7.9385E-06   ; 5.3242E-05   
   1.42875000000E+06; -7.88558E-06  ; 5.38636E-05  
   1.43137500000E+06; -8.33859E-06  ; 5.36519E-05  
   1.43400000000E+06; -8.43407E-06  ; 5.37885E-05  
   1.43662500000E+06; -9.15521E-06  ; 5.33732E-05  
   1.43925000000E+06; -8.94582E-06  ; 5.3763E-05   
   1.44187500000E+06; -9.34493E-06  ; 5.46064E-05  
   1.44450000000E+06; -8.40567E-06  ; 5.39574E-05  
   1.44712500000E+06; -8.75687E-06  ; 5.38595E-05  
   1.44975000000E+06; -8.69894E-06  ; 5.39004E-05  
   1.45237500000E+06; -9.06594E-06  ; 5.445E-05    
   1.45500000000E+06; -8.76812E-06  ; 5.56596E-05  
   1.45762500000E+06; -8.09131E-06  ; 5.48476E-05  
   1.46025000000E+06; -9.13421E-06  ; 5.48641E-05  
   1.46287500000E+06; -8.84196E-06  ; 5.45769E-05  
   1.46550000000E+06; -8.6741E-06   ; 5.53958E-05  
   1.46812500000E+06; -8.31461E-06  ; 5.45575E-05  
   1.47075000000E+06; -9.42444E-06  ; 5.48353E-05  
   1.47337500000E+06; -9.56722E-06  ; 5.56588E-05  
   1.47600000000E+06; -9.21398E-06  ; 5.57097E-05  
   1.47862500000E+06; -7.9907E-06   ; 5.61457E-05  
   1.48125000000E+06; -9.83896E-06  ; 5.51269E-05  
   1.48387500000E+06; -9.34209E-06  ; 5.53272E-05  
   1.48650000000E+06; -8.71042E-06  ; 5.53394E-05  
   1.48912500000E+06; -8.42127E-06  ; 5.61682E-05  
   1.49175000000E+06; -8.92094E-06  ; 5.69824E-05  
   1.49437500000E+06; -8.89181E-06  ; 5.5295E-05   
   1.49700000000E+06; -9.05574E-06  ; 5.58952E-05  
   1.49962500000E+06; -9.0215E-06   ; 5.63541E-05  
   1.50225000000E+06; -9.03923E-06  ; 5.67929E-05  
   1.50487500000E+06; -1.00453E-05  ; 5.63729E-05  
   1.50750000000E+06; -8.83347E-06  ; 5.69148E-05  
   1.51012500000E+06; -9.87143E-06  ; 5.66391E-05  
   1.51275000000E+06; -9.53106E-06  ; 5.69794E-05  
   1.51537500000E+06; -9.50622E-06  ; 5.57655E-05  
   1.51800000000E+06; -9.704E-06    ; 5.69891E-05  
   1.52062500000E+06; -9.37674E-06  ; 5.75351E-05  
   1.52325000000E+06; -1.04339E-05  ; 5.67473E-05  
   1.52587500000E+06; -9.59809E-06  ; 5.78507E-05  
   1.52850000000E+06; -9.50025E-06  ; 5.72971E-05  
   1.53112500000E+06; -9.67969E-06  ; 5.80198E-05  
   1.53375000000E+06; -9.18115E-06  ; 5.76619E-05  
   1.53637500000E+06; -8.95599E-06  ; 5.80209E-05  
   1.53900000000E+06; -9.281E-06    ; 5.70328E-05  
   1.54162500000E+06; -9.09074E-06  ; 5.81899E-05  
   1.54425000000E+06; -9.37622E-06  ; 5.80475E-05  
   1.54687500000E+06; -1.08294E-05  ; 5.75399E-05  
   1.54950000000E+06; -1.04013E-05  ; 5.73723E-05  
   1.55212500000E+06; -9.87652E-06  ; 5.76695E-05  
   1.55475000000E+06; -1.03574E-05  ; 5.86134E-05  
   1.55737500000E+06; -8.10598E-06  ; 5.9119E-05   
   1.56000000000E+06; -1.0385E-05   ; 5.8063E-05   
   1.56262500000E+06; -9.84131E-06  ; 5.95356E-05  
   1.56525000000E+06; -1.00394E-05  ; 5.80683E-05  
   1.56787500000E+06; -1.20758E-05  ; 5.98964E-05  
   1.57050000000E+06; -1.14067E-05  ; 6.06386E-05  
   1.57312500000E+06; -1.0204E-05   ; 5.9708E-05   
   1.57575000000E+06; -9.65389E-06  ; 6.01744E-05  
   1.57837500000E+06; -9.10856E-06  ; 5.92112E-05  
   1.58100000000E+06; -9.5699E-06   ; 6.0012E-05   
   1.58362500000E+06; -1.05483E-05  ; 5.86788E-05  
   1.58625000000E+06; -9.69368E-06  ; 6.00553E-05  
   1.58887500000E+06; -9.99471E-06  ; 5.94501E-05  
   1.59150000000E+06; -1.05827E-05  ; 6.05676E-05  
   1.59412500000E+06; -1.07488E-05  ; 6.00626E-05  
   1.59675000000E+06; -9.65357E-06  ; 6.04193E-05  
   1.59937500000E+06; -1.09123E-05  ; 6.01658E-05  
   1.60200000000E+06; -1.00226E-05  ; 6.07064E-05  
   1.60462500000E+06; -9.03375E-06  ; 5.96566E-05  
   1.60725000000E+06; -1.03457E-05  ; 6.1285E-05   
   1.60987500000E+06; -1.02554E-05  ; 6.00434E-05  
   1.61250000000E+06; -1.03397E-05  ; 6.08289E-05  
   1.61512500000E+06; -1.07041E-05  ; 6.04676E-05  
   1.61775000000E+06; -1.05313E-05  ; 6.03217E-05  
   1.62037500000E+06; -1.06185E-05  ; 6.07697E-05  
   1.62300000000E+06; -1.07599E-05  ; 6.02455E-05  
   1.62562500000E+06; -9.88553E-06  ; 6.05453E-05  
   1.62825000000E+06; -9.60191E-06  ; 6.11535E-05  
   1.63087500000E+06; -1.11857E-05  ; 6.14957E-05  
   1.63350000000E+06; -1.03787E-05  ; 6.1342E-05   
   1.63612500000E+06; -1.08757E-05  ; 6.22893E-05  
   1.63875000000E+06; -1.04115E-05  ; 6.18306E-05  
   1.64137500000E+06; -1.11031E-05  ; 6.19983E-05  
   1.64400000000E+06; -1.00745E-05  ; 6.1702E-05   
   1.64662500000E+06; -1.07871E-05  ; 6.19924E-05  
   1.64925000000E+06; -1.12728E-05  ; 6.1688E-05   
   1.65187500000E+06; -1.19005E-05  ; 6.17885E-05  
   1.65450000000E+06; -1.17635E-05  ; 6.26352E-05  
   1.65712500000E+06; -1.06363E-05  ; 6.22566E-05  
   1.65975000000E+06; -1.11664E-05  ; 6.26561E-05  
   1.66237500000E+06; -1.05713E-05  ; 6.23876E-05  
   1.66500000000E+06; -1.12988E-05  ; 6.20492E-05  
   1.66762500000E+06; -1.15856E-05  ; 6.2334E-05   
   1.67025000000E+06; -1.07006E-05  ; 6.334E-05    
   1.67287500000E+06; -1.08081E-05  ; 6.26093E-05  
   1.67550000000E+06; -1.1303E-05   ; 6.24186E-05  
   1.67812500000E+06; -1.02026E-05  ; 6.33888E-05  
   1.68075000000E+06; -1.04079E-05  ; 6.25502E-05  
   1.68337500000E+06; -1.06244E-05  ; 6.36063E-05  
   1.68600000000E+06; -1.1811E-05   ; 6.32516E-05  
   1.68862500000E+06; -1.02361E-05  ; 6.28904E-05  
   1.69125000000E+06; -1.15554E-05  ; 6.36803E-05  
   1.69387500000E+06; -1.06679E-05  ; 6.3478E-05   
   1.69650000000E+06; -1.16809E-05  ; 6.33798E-05  
   1.69912500000E+06; -1.10358E-05  ; 6.32022E-05  
   1.70175000000E+06; -1.06491E-05  ; 6.42401E-05  
   1.70437500000E+06; -1.15779E-05  ; 6.46002E-05  
   1.70700000000E+06; -1.12987E-05  ; 6.43174E-05  
   1.70962500000E+06; -1.11891E-05  ; 6.41474E-05  
   1.71225000000E+06; -1.10398E-05  ; 6.53448E-05  
   1.71487500000E+06; -9.90966E-06  ; 6.47704E-05  
   1.71750000000E+06; -1.0107E-05   ; 6.40535E-05  
   1.72012500000E+06; -1.14208E-05  ; 6.41111E-05  
   1.72275000000E+06; -1.10762E-05  ; 6.51637E-05  
   1.72537500000E+06; -1.04118E-05  ; 6.44396E-05  
   1.72800000000E+06; -1.10258E-05  ; 6.54364E-05  
   1.73062500000E+06; -1.18854E-05  ; 6.45879E-05  
   1.73325000000E+06; -1.13427E-05  ; 6.46623E-05  
   1.73587500000E+06; -1.16665E-05  ; 6.46697E-05  
   1.73850000000E+06; -1.14486E-05  ; 6.54192E-05  
   1.74112500000E+06; -1.15092E-05  ; 6.56044E-05  
   1.74375000000E+06; -1.17863E-05  ; 6.54188E-05  
   1.74637500000E+06; -1.1786E-05   ; 6.54747E-05  
   1.74900000000E+06; -1.19505E-05  ; 6.60461E-05  
   1.75162500000E+06; -1.17265E-05  ; 6.63791E-05  
   1.75425000000E+06; -1.15541E-05  ; 6.66557E-05  
   1.75687500000E+06; -1.17601E-05  ; 6.5837E-05   
   1.75950000000E+06; -1.16317E-05  ; 6.54988E-05  
   1.76212500000E+06; -1.16025E-05  ; 6.58874E-05  
   1.76475000000E+06; -1.18737E-05  ; 6.51932E-05  
   1.76737500000E+06; -1.23102E-05  ; 6.52094E-05  
   1.77000000000E+06; -1.1822E-05   ; 6.62469E-05  
   1.77262500000E+06; -1.17625E-05  ; 6.66117E-05  
   1.77525000000E+06; -1.12306E-05  ; 6.62505E-05  
   1.77787500000E+06; -1.14268E-05  ; 6.69866E-05  
   1.78050000000E+06; -1.22723E-05  ; 6.56537E-05  
   1.78312500000E+06; -1.23804E-05  ; 6.66926E-05  
   1.78575000000E+06; -1.23546E-05  ; 6.57512E-05  
   1.78837500000E+06; -1.19583E-05  ; 6.78401E-05  
   1.79100000000E+06; -1.15759E-05  ; 6.79901E-05  
   1.79362500000E+06; -1.16594E-05  ; 6.67366E-05  
   1.79625000000E+06; -1.18159E-05  ; 6.67242E-05  
   1.79887500000E+06; -1.23115E-05  ; 6.64809E-05  
   1.80150000000E+06; -1.2896E-05   ; 6.7473E-05   
   1.80412500000E+06; -1.23352E-05  ; 6.76263E-05  
   1.80675000000E+06; -1.24822E-05  ; 6.63437E-05  
   1.80937500000E+06; -1.184E-05    ; 6.76198E-05  
   1.81200000000E+06; -1.17024E-05  ; 6.76194E-05  
   1.81462500000E+06; -1.20885E-05  ; 6.71098E-05  
   1.81725000000E+06; -1.283E-05    ; 6.77944E-05  
   1.81987500000E+06; -1.19178E-05  ; 6.74473E-05  
   1.82250000000E+06; -1.27309E-05  ; 6.73786E-05  
   1.82512500000E+06; -1.36028E-05  ; 6.83288E-05  
   1.82775000000E+06; -1.19999E-05  ; 6.82464E-05  
   1.83037500000E+06; -1.28537E-05  ; 6.75716E-05  
   1.83300000000E+06; -1.28089E-05  ; 6.91651E-05  
   1.83562500000E+06; -1.23613E-05  ; 6.82088E-05  
   1.83825000000E+06; -1.25684E-05  ; 6.87648E-05  
   1.84087500000E+06; -1.21159E-05  ; 6.92773E-05  
   1.84350000000E+06; -1.27523E-05  ; 6.95171E-05  
   1.84612500000E+06; -1.20374E-05  ; 6.92071E-05  
   1.84875000000E+06; -1.25381E-05  ; 6.85665E-05  
   1.85137500000E+06; -1.23699E-05  ; 6.96659E-05  
   1.85400000000E+06; -1.19249E-05  ; 6.87318E-05  
   1.85662500000E+06; -1.22205E-05  ; 6.91836E-05  
   1.85925000000E+06; -1.25749E-05  ; 6.89913E-05  
   1.86187500000E+06; -1.2139E-05   ; 6.99064E-05  
   1.86450000000E+06; -1.23059E-05  ; 6.99375E-05  
   1.86712500000E+06; -1.26225E-05  ; 6.92421E-05  
   1.86975000000E+06; -1.20978E-05  ; 6.97746E-05  
   1.87237500000E+06; -1.29615E-05  ; 6.95193E-05  
   1.87500000000E+06; -1.20042E-05  ; 6.97425E-05  
   1.87762500000E+06; -1.28491E-05  ; 6.90301E-05  
   1.88025000000E+06; -1.2539E-05   ; 6.99855E-05  
   1.88287500000E+06; -1.24221E-05  ; 7.01565E-05  
   1.88550000000E+06; -1.27237E-05  ; 6.96286E-05  
   1.88812500000E+06; -1.43628E-05  ; 7.0459E-05   
   1.89075000000E+06; -1.36845E-05  ; 6.94486E-05  
   1.89337500000E+06; -1.34962E-05  ; 7.10627E-05  
   1.89600000000E+06; -1.2903E-05   ; 7.00091E-05  
   1.89862500000E+06; -1.31965E-05  ; 7.11371E-05  
   1.90125000000E+06; -1.25066E-05  ; 7.10386E-05  
   1.90387500000E+06; -1.27168E-05  ; 7.10177E-05  
   1.90650000000E+06; -1.21604E-05  ; 7.03958E-05  
   1.90912500000E+06; -1.32059E-05  ; 7.23337E-05  
   1.91175000000E+06; -1.33025E-05  ; 7.1294E-05   
   1.91437500000E+06; -1.24371E-05  ; 7.08417E-05  
   1.91700000000E+06; -1.33575E-05  ; 7.07906E-05  
   1.91962500000E+06; -1.15872E-05  ; 7.08175E-05  
   1.92225000000E+06; -1.24956E-05  ; 7.09565E-05  
   1.92487500000E+06; -1.24133E-05  ; 7.0972E-05   
   1.92750000000E+06; -1.30416E-05  ; 7.07107E-05  
   1.93012500000E+06; -1.26806E-05  ; 7.14493E-05  
   1.93275000000E+06; -1.27694E-05  ; 7.11693E-05  
   1.93537500000E+06; -1.29917E-05  ; 7.16098E-05  
   1.93800000000E+06; -1.31092E-05  ; 7.19959E-05  
   1.94062500000E+06; -1.25127E-05  ; 7.19531E-05  
   1.94325000000E+06; -1.42037E-05  ; 7.19258E-05  
   1.94587500000E+06; -1.30516E-05  ; 7.26136E-05  
   1.94850000000E+06; -1.35198E-05  ; 7.23899E-05  
   1.95112500000E+06; -1.2643E-05   ; 7.21988E-05  
   1.95375000000E+06; -1.30671E-05  ; 7.18965E-05  
   1.95637500000E+06; -1.26729E-05  ; 7.29983E-05  
   1.95900000000E+06; -1.23666E-05  ; 7.2982E-05   
   1.96162500000E+06; -1.30891E-05  ; 7.23621E-05  
   1.96425000000E+06; -1.37992E-05  ; 7.32005E-05  
   1.96687500000E+06; -1.3635E-05   ; 7.28864E-05  
   1.96950000000E+06; -1.29047E-05  ; 7.35084E-05  
   1.97212500000E+06; -1.31036E-05  ; 7.2382E-05   
   1.97475000000E+06; -1.40949E-05  ; 7.27434E-05  
   1.97737500000E+06; -1.3346E-05   ; 7.3516E-05   
   1.98000000000E+06; -1.40274E-05  ; 7.35322E-05  
   1.98262500000E+06; -1.20019E-05  ; 7.25328E-05  
   1.98525000000E+06; -1.27733E-05  ; 7.41081E-05  
   1.98787500000E+06; -1.33124E-05  ; 7.353E-05    
   1.99050000000E+06; -1.28939E-05  ; 7.29792E-05  
   1.99312500000E+06; -1.34367E-05  ; 7.38569E-05  
   1.99575000000E+06; -1.33727E-05  ; 7.33634E-05  
   1.99837500000E+06; -1.34092E-05  ; 7.43269E-05  
   2.00100000000E+06; -1.29956E-05  ; 7.39905E-05  
   2.00362500000E+06; -1.26542E-05  ; 7.48256E-05  
   2.00625000000E+06; -1.45017E-05  ; 7.50663E-05  
   2.00887500000E+06; -1.37339E-05  ; 7.45976E-05  
   2.01150000000E+06; -1.33356E-05  ; 7.47797E-05  
   2.01412500000E+06; -1.27825E-05  ; 7.44557E-05  
   2.01675000000E+06; -1.44514E-05  ; 7.53002E-05  
   2.01937500000E+06; -1.34846E-05  ; 7.55151E-05  
   2.02200000000E+06; -1.2268E-05   ; 7.56226E-05  
   2.02462500000E+06; -1.41536E-05  ; 7.55776E-05  
   2.02725000000E+06; -1.33822E-05  ; 7.62518E-05  
   2.02987500000E+06; -1.41581E-05  ; 7.67902E-05  
   2.03250000000E+06; -1.388E-05    ; 7.62134E-05  
   2.03512500000E+06; -1.33432E-05  ; 7.60871E-05  
   2.03775000000E+06; -1.44109E-05  ; 7.4702E-05   
   2.04037500000E+06; -1.4564E-05   ; 7.61311E-05  
   2.04300000000E+06; -1.36232E-05  ; 7.61853E-05  
   2.04562500000E+06; -1.27663E-05  ; 7.65813E-05  
   2.04825000000E+06; -1.41876E-05  ; 7.65804E-05  
   2.05087500000E+06; -1.40174E-05  ; 7.66346E-05  
   2.05350000000E+06; -1.49916E-05  ; 7.76985E-05  
   2.05612500000E+06; -1.36119E-05  ; 7.77118E-05  
   2.05875000000E+06; -1.26648E-05  ; 7.65688E-05  
   2.06137500000E+06; -1.37364E-05  ; 7.63392E-05  
   2.06400000000E+06; -1.39524E-05  ; 7.72662E-05  
   2.06662500000E+06; -1.35294E-05  ; 7.74971E-05  
   2.06925000000E+06; -1.34855E-05  ; 7.72789E-05  
   2.07187500000E+06; -1.39008E-05  ; 7.67044E-05  
   2.07450000000E+06; -1.4009E-05   ; 7.71174E-05  
   2.07712500000E+06; -1.42172E-05  ; 7.77239E-05  
   2.07975000000E+06; -1.39388E-05  ; 7.78908E-05  
   2.08237500000E+06; -1.43931E-05  ; 7.6977E-05   
   2.08500000000E+06; -1.37857E-05  ; 7.79773E-05  
   2.08762500000E+06; -1.44744E-05  ; 7.79301E-05  
   2.09025000000E+06; -1.35538E-05  ; 7.79708E-05  
   2.09287500000E+06; -1.41643E-05  ; 7.82447E-05  
   2.09550000000E+06; -1.37837E-05  ; 7.74319E-05  
   2.09812500000E+06; -1.34603E-05  ; 7.85509E-05  
   2.10075000000E+06; -1.44075E-05  ; 7.77797E-05  
   2.10337500000E+06; -1.42018E-05  ; 7.78494E-05  
   2.10600000000E+06; -1.52337E-05  ; 7.77062E-05  
   2.10862500000E+06; -1.34773E-05  ; 7.88934E-05  
   2.11125000000E+06; -1.40313E-05  ; 7.873E-05    
   2.11387500000E+06; -1.48077E-05  ; 7.93635E-05  
   2.11650000000E+06; -1.39833E-05  ; 7.94452E-05  
   2.11912500000E+06; -1.41734E-05  ; 7.76461E-05  
   2.12175000000E+06; -1.45777E-05  ; 7.8089E-05   
   2.12437500000E+06; -1.43342E-05  ; 7.8971E-05   
   2.12700000000E+06; -1.45038E-05  ; 7.88558E-05  
   2.12962500000E+06; -1.43225E-05  ; 7.85674E-05  
   2.13225000000E+06; -1.39333E-05  ; 7.92158E-05  
   2.13487500000E+06; -1.39749E-05  ; 7.96686E-05  
   2.13750000000E+06; -1.29442E-05  ; 8.02225E-05  
   2.14012500000E+06; -1.38898E-05  ; 7.94052E-05  
   2.14275000000E+06; -1.47258E-05  ; 7.93714E-05  
   2.14537500000E+06; -1.48391E-05  ; 7.89752E-05  
   2.14800000000E+06; -1.43289E-05  ; 7.95496E-05  
   2.15062500000E+06; -1.39216E-05  ; 7.9656E-05   
   2.15325000000E+06; -1.49426E-05  ; 7.80484E-05  
   2.15587500000E+06; -1.49534E-05  ; 8.09856E-05  
   2.15850000000E+06; -1.48687E-05  ; 8.0999E-05   
   2.16112500000E+06; -1.39861E-05  ; 7.92752E-05  
   2.16375000000E+06; -1.29727E-05  ; 8.03165E-05  
   2.16637500000E+06; -1.41553E-05  ; 7.95543E-05  
   2.16900000000E+06; -1.58131E-05  ; 8.03998E-05  
   2.17162500000E+06; -1.4907E-05   ; 8.0363E-05   
   2.17425000000E+06; -1.46146E-05  ; 8.13537E-05  
   2.17687500000E+06; -1.46725E-05  ; 8.04627E-05  
   2.17950000000E+06; -1.42789E-05  ; 8.06218E-05  
   2.18212500000E+06; -1.48917E-05  ; 8.09418E-05  
   2.18475000000E+06; -1.49353E-05  ; 8.18316E-05  
   2.18737500000E+06; -1.45568E-05  ; 8.00635E-05  
   2.19000000000E+06; -1.46842E-05  ; 8.05822E-05  
   2.19262500000E+06; -1.50513E-05  ; 8.11691E-05  
   2.19525000000E+06; -1.46702E-05  ; 8.14916E-05  
   2.19787500000E+06; -1.54236E-05  ; 8.16478E-05  
   2.20050000000E+06; -1.60335E-05  ; 8.22231E-05  
   2.20312500000E+06; -1.49644E-05  ; 8.09557E-05  
   2.20575000000E+06; -1.52318E-05  ; 8.24776E-05  
   2.20837500000E+06; -1.51444E-05  ; 8.2068E-05   
   2.21100000000E+06; -1.34217E-05  ; 8.33659E-05  
   2.21362500000E+06; -1.43915E-05  ; 8.20067E-05  
   2.21625000000E+06; -1.30129E-05  ; 8.13213E-05  
   2.21887500000E+06; -1.6395E-05   ; 8.07918E-05  
   2.22150000000E+06; -1.57243E-05  ; 8.06667E-05  
   2.22412500000E+06; -1.59617E-05  ; 8.27641E-05  
   2.22675000000E+06; -1.51722E-05  ; 8.43442E-05  
   2.22937500000E+06; -1.30814E-05  ; 8.26121E-05  
   2.23200000000E+06; -1.52887E-05  ; 8.2116E-05   
   2.23462500000E+06; -1.75992E-05  ; 8.20896E-05  
   2.23725000000E+06; -1.35012E-05  ; 8.3113E-05   
   2.23987500000E+06; -1.55183E-05  ; 8.17062E-05  
   2.24250000000E+06; -1.43442E-05  ; 8.45044E-05  
   2.24512500000E+06; -1.4253E-05   ; 8.38183E-05  
   2.24775000000E+06; -1.37997E-05  ; 8.2991E-05   
   2.25037500000E+06; -1.38946E-05  ; 8.18485E-05  
   2.25300000000E+06; -1.55919E-05  ; 8.22325E-05  
   2.25562500000E+06; -1.42746E-05  ; 8.34722E-05  
   2.25825000000E+06; -1.60641E-05  ; 8.47197E-05  
   2.26087500000E+06; -1.38995E-05  ; 8.22246E-05  
   2.26350000000E+06; -1.60228E-05  ; 8.21977E-05  
   2.26612500000E+06; -1.78485E-05  ; 8.22924E-05  
   2.26875000000E+06; -1.2761E-05   ; 8.3301E-05   
   2.27137500000E+06; -1.57657E-05  ; 8.48208E-05  
   2.27400000000E+06; -1.46433E-05  ; 8.46536E-05  
   2.27662500000E+06; -1.37352E-05  ; 8.55266E-05  
   2.27925000000E+06; -1.26832E-05  ; 7.83488E-05  
   2.28187500000E+06; -1.59851E-05  ; 8.08049E-05  
   2.28450000000E+06; -1.81551E-05  ; 8.43963E-05  
   2.28712500000E+06; -1.87745E-05  ; 9.04818E-05  
   2.28975000000E+06; -1.22267E-05  ; 8.65143E-05  
   2.29237500000E+06; -1.15051E-05  ; 8.49753E-05  
   2.29500000000E+06; -1.89738E-05  ; 7.97063E-05  
   2.29762500000E+06; -1.59732E-05  ; 8.32752E-05  
   2.30025000000E+06; -1.58032E-05  ; 8.42246E-05  
   2.30287500000E+06; -1.58998E-05  ; 8.23766E-05  
   2.30550000000E+06; -1.73567E-05  ; 8.68204E-05  
   2.30812500000E+06; -1.57477E-05  ; 8.77245E-05  
   2.31075000000E+06; -1.59279E-05  ; 8.64337E-05  
   2.31337500000E+06; -1.32839E-05  ; 8.55047E-05  
   2.31600000000E+06; -1.27351E-05  ; 8.4539E-05   
   2.31862500000E+06; -1.38395E-05  ; 8.44145E-05  
   2.32125000000E+06; -1.5998E-05   ; 8.41883E-05  
   2.32387500000E+06; -1.6548E-05   ; 8.52212E-05  
   2.32650000000E+06; -1.52661E-05  ; 8.54782E-05  
   2.32912500000E+06; -1.62066E-05  ; 8.57495E-05  
   2.33175000000E+06; -1.67351E-05  ; 8.58896E-05  
   2.33437500000E+06; -1.52926E-05  ; 8.67202E-05  
   2.33700000000E+06; -1.54353E-05  ; 8.67991E-05  
   2.33962500000E+06; -1.57302E-05  ; 8.63559E-05  
   2.34225000000E+06; -1.57799E-05  ; 8.63565E-05  
   2.34487500000E+06; -1.50669E-05  ; 8.68478E-05  
   2.34750000000E+06; -1.50479E-05  ; 8.66788E-05  
   2.35012500000E+06; -1.56584E-05  ; 8.62921E-05  
   2.35275000000E+06; -1.56957E-05  ; 8.66558E-05  
   2.35537500000E+06; -1.6606E-05   ; 8.72193E-05  
   2.35800000000E+06; -1.4739E-05   ; 8.71598E-05  
   2.36062500000E+06; -1.49244E-05  ; 8.69478E-05  
   2.36325000000E+06; -1.60712E-05  ; 8.71132E-05  
   2.36587500000E+06; -1.48931E-05  ; 8.62215E-05  
   2.36850000000E+06; -1.44716E-05  ; 8.70676E-05  
   2.37112500000E+06; -1.56349E-05  ; 8.75284E-05  
   2.37375000000E+06; -1.55141E-05  ; 8.73235E-05  
   2.37637500000E+06; -1.70096E-05  ; 8.65183E-05  
   2.37900000000E+06; -1.57779E-05  ; 8.83321E-05  
   2.38162500000E+06; -1.6324E-05   ; 8.83227E-05  
   2.38425000000E+06; -1.47461E-05  ; 8.72967E-05  
   2.38687500000E+06; -1.59415E-05  ; 8.71418E-05  
   2.38950000000E+06; -1.60251E-05  ; 8.78436E-05  
   2.39212500000E+06; -1.55149E-05  ; 8.8386E-05   
   2.39475000000E+06; -1.55653E-05  ; 8.84962E-05  
   2.39737500000E+06; -1.51433E-05  ; 8.75532E-05  
   2.40000000000E+06; -1.58449E-05  ; 8.80743E-05  
